# User: ACHyster
# File name: C:/ACHYSTER/ACHyster SENS/SHAMS/CoFe2O4-1gl-water-32 Glycerol-Sens-07-03-2023/CoFe2O4-1gl-water-32 Glycerol- 10_100F- 24 kAm -Sens-07-03-20230004#1.txt
# Saved at: ma. mar. 7 16:24:42 2023
# Hyster Loop (3 iterations). Intensity: 24.0 kA/m; Tuned frequency: 50.0 kHz
# Units x axis: (kA/m)
# Units y axis: "Repeats y" & "Average y" (10^(-3)Am^2); "Mass avg y" (Am^2/kg)
# Magnetic mass: 4e-05 g
# Parameter      	Repeat   1	Repeat   2	Repeat   3	Average   	Sigma     
# H_C (kA/m)     	      21.2	      21.0	      21.1	      21.1	       0.1
# M_R (Am^2/kg)  	      45.6	      46.3	      46.0	      46.0	       0.3
# M_max (Am^2/kg)	      25.2	      26.1	      25.7	      25.7	       0.4
# Area (mJ/kg)   	    4246.4	    4297.6	    4289.2	    4277.8	      22.4
# SAR (W/g)      	     212.3	     214.9	     214.5	     213.9	       1.1
#Repeat 1 x	Repeat 1 y	Repeat 2 x	Repeat 2 y	Repeat 3 x	Repeat 3 y	Average x 	Average y 	Mass avg x 	Mass avg y 
  -3.25991	-0.00191009	  -3.24994	-0.0019423	  -3.30152	-0.00192986	  -3.27046	-0.00192742	  -3.27046	  -48.1854	
  -3.10971	-0.00190689	  -3.10088	-0.00193919	  -3.15054	-0.00192678	  -3.12038	-0.00192429	  -3.12038	  -48.1072	
  -2.96014	-0.00190364	   -2.9516	-0.00193611	  -2.99969	-0.00192356	  -2.97048	-0.0019211	  -2.97048	  -48.0276	
  -2.80984	-0.00190038	  -2.80281	-0.00193293	  -2.84808	-0.00192016	  -2.82024	-0.00191783	  -2.82024	  -47.9456	
  -2.65947	-0.00189711	  -2.65323	-0.00192958	  -2.69639	-0.00191662	  -2.66969	-0.00191444	  -2.66969	  -47.8609	
  -2.50957	-0.0018938	  -2.50347	 -0.001926	  -2.54448	-0.00191301	  -2.51917	-0.00191093	  -2.51917	  -47.7734	
  -2.35904	-0.00189038	  -2.35359	-0.00192222	  -2.39327	-0.00190938	  -2.36863	-0.00190733	  -2.36863	  -47.6832	
  -2.20889	-0.00188683	  -2.20384	-0.00191835	  -2.24181	-0.00190577	  -2.21818	-0.00190365	  -2.21818	  -47.5912	
   -2.0581	-0.00188313	   -2.0535	-0.00191448	  -2.08972	-0.00190213	  -2.06711	-0.00189991	  -2.06711	  -47.4978	
  -1.90693	-0.00187932	  -1.90284	-0.00191067	   -1.9376	-0.0018984	  -1.91579	-0.00189613	  -1.91579	  -47.4033	
   -1.7557	-0.00187544	  -1.75173	-0.0019069	   -1.7854	-0.00189454	  -1.76428	-0.00189229	  -1.76428	  -47.3073	
  -1.60453	-0.00187154	  -1.60048	-0.00190306	  -1.63298	-0.00189052	  -1.61266	-0.00188837	  -1.61266	  -47.2093	
  -1.45363	-0.00186763	  -1.44924	-0.00189905	  -1.48049	-0.00188638	  -1.46112	-0.00188436	  -1.46112	  -47.1089	
  -1.30249	-0.00186368	   -1.2979	-0.00189487	  -1.32816	-0.00188218	  -1.30952	-0.00188025	  -1.30952	  -47.0062	
  -1.15134	-0.00185964	   -1.1475	-0.00189047	  -1.17627	-0.00187796	  -1.15837	-0.00187602	  -1.15837	  -46.9006	
  -1.00016	-0.00185547	 -0.996519	-0.00188595	   -1.0249	-0.00187373	  -1.00719	-0.00187172	  -1.00719	  -46.7929	
 -0.848706	-0.00185116	 -0.845671	-0.00188135	 -0.873527	-0.00186944	 -0.855968	-0.00186732	 -0.855968	  -46.6829	
 -0.697542	-0.00184674	 -0.694803	-0.00187678	  -0.72168	-0.00186505	 -0.704675	-0.00186286	 -0.704675	  -46.5714	
 -0.546424	-0.00184227	 -0.544038	-0.00187223	 -0.570285	-0.00186053	 -0.553582	-0.00185834	 -0.553582	  -46.4585	
 -0.396039	-0.00183778	 -0.393486	-0.00186761	 -0.419287	-0.00185588	 -0.402937	-0.00185375	 -0.402937	  -46.3439	
 -0.245441	-0.00183328	 -0.243162	-0.00186291	 -0.268741	-0.00185111	 -0.252448	-0.0018491	 -0.252448	  -46.2275	
-0.0945174	-0.00182871	-0.0925693	-0.00185803	 -0.118813	-0.00184629	 -0.101967	-0.00184434	 -0.101967	  -46.1086	
 0.0563326	-0.00182403	 0.0578985	-0.00185297	 0.0303522	-0.00184144	 0.0481945	-0.00183948	 0.0481945	   -45.987	
  0.207426	-0.00181919	  0.208843	-0.00184775	    0.1797	-0.00183655	  0.198656	-0.0018345	  0.198656	  -45.8624	
  0.358872	-0.00181422	  0.359737	-0.00184241	    0.3293	-0.0018316	  0.349303	-0.00182941	  0.349303	  -45.7353	
   0.51044	-0.00180918	  0.510379	-0.00183705	  0.478927	-0.00182656	  0.499915	-0.00182426	  0.499915	  -45.6065	
  0.662254	-0.00180411	  0.661699	-0.00183168	  0.628637	-0.00182138	  0.650863	-0.00181906	  0.650863	  -45.4764	
  0.814309	-0.00179905	  0.812946	-0.00182631	  0.778875	-0.00181609	  0.802044	-0.00181381	  0.802044	  -45.3454	
  0.966149	-0.00179396	  0.965007	-0.0018209	   0.92883	-0.0018107	  0.953328	-0.00180852	  0.953328	   -45.213	
   1.11792	-0.0017888	   1.11692	-0.00181537	   1.07935	-0.00180527	   1.10473	-0.00180314	   1.10473	  -45.0786	
   1.26944	-0.00178349	   1.26806	-0.00180967	   1.22941	-0.00179981	   1.25564	-0.00179766	   1.25564	  -44.9414	
   1.42102	-0.00177802	   1.41894	-0.00180381	   1.38008	-0.00179433	   1.40668	-0.00179205	   1.40668	  -44.8013	
   1.57193	-0.00177242	   1.56983	-0.00179783	   1.53064	-0.0017888	   1.55747	-0.00178635	   1.55747	  -44.6588	
   1.72307	-0.00176671	   1.72054	-0.00179181	    1.6809	-0.00178319	   1.70817	-0.00178057	   1.70817	  -44.5142	
   1.87436	-0.00176097	   1.87096	-0.00178576	   1.83111	-0.00177743	   1.85881	-0.00177472	   1.85881	   -44.368	
   2.02582	-0.0017552	   2.02157	-0.00177967	   1.98116	-0.00177152	   2.00952	-0.0017688	   2.00952	    -44.22	
   2.17718	-0.00174938	   2.17243	-0.00177352	   2.13171	-0.00176548	   2.16044	-0.00176279	   2.16044	  -44.0698	
    2.3279	-0.00174345	    2.3233	-0.00176725	   2.28218	-0.00175937	   2.31113	-0.00175669	   2.31113	  -43.9173	
   2.47833	-0.00173737	   2.47383	-0.00176087	   2.43297	-0.00175322	   2.46171	-0.00175049	   2.46171	  -43.7622	
   2.62825	-0.00173116	   2.62434	-0.00175438	   2.58393	-0.00174708	   2.61217	-0.00174421	   2.61217	  -43.6052	
   2.77806	-0.00172487	   2.77464	-0.00174779	   2.73518	-0.00174091	   2.76263	-0.00173786	   2.76263	  -43.4464	
   2.92757	-0.00171855	   2.92522	-0.00174113	   2.88615	-0.00173467	   2.91298	-0.00173145	   2.91298	  -43.2862	
   3.07729	-0.00171223	   3.07671	-0.00173441	   3.03692	-0.00172828	   3.06364	-0.00172497	   3.06364	  -43.1243	
   3.22695	-0.00170587	   3.22791	-0.00172764	   3.18824	-0.00172175	   3.21437	-0.00171842	   3.21437	  -42.9605	
   3.37709	-0.00169943	    3.3787	-0.00172082	     3.339	-0.00171509	   3.36493	-0.00171178	   3.36493	  -42.7944	
   3.52746	-0.00169284	   3.52892	-0.00171391	   3.48939	-0.00170835	   3.51526	-0.00170503	   3.51526	  -42.6258	
   3.67752	-0.0016861	   3.67917	-0.0017069	   3.64001	-0.00170157	   3.66556	-0.00169819	   3.66556	  -42.4547	
   3.82758	-0.00167922	   3.82962	-0.00169977	   3.79043	-0.00169478	   3.81588	-0.00169126	   3.81588	  -42.2815	
   3.97763	-0.00167227	   3.97926	-0.00169255	   3.94058	-0.00168795	   3.96582	-0.00168425	   3.96582	  -42.1064	
   4.12746	-0.00166536	   4.12796	-0.00168524	   4.09097	-0.00168104	   4.11546	-0.00167721	   4.11546	  -41.9303	
    4.2774	-0.00165841	   4.27636	-0.00167789	   4.24154	 -0.001674	    4.2651	-0.0016701	    4.2651	  -41.7524	
   4.42718	-0.00165142	   4.42467	-0.00167049	   4.39173	-0.00166674	   4.41453	-0.00166289	   4.41453	  -41.5721	
   4.57685	-0.00164431	   4.57293	-0.00166303	   4.54087	-0.00165932	   4.56355	-0.00165555	   4.56355	  -41.3889	
   4.72656	-0.00163705	   4.72095	-0.00165548	   4.68986	-0.00165182	   4.71245	-0.00164812	   4.71245	   -41.203	
   4.87592	-0.00162967	   4.86829	-0.00164783	   4.83785	-0.00164439	   4.86069	-0.00164063	   4.86069	  -41.0157	
   5.02473	-0.00162217	   5.01577	-0.00164006	   4.98608	-0.00163707	   5.00886	-0.0016331	   5.00886	  -40.8275	
   5.17338	-0.00161468	   5.16283	-0.00163221	   5.13468	-0.00162974	   5.15697	-0.00162554	   5.15697	  -40.6386	
   5.32171	-0.0016072	   5.30967	-0.0016243	   5.28446	-0.0016223	   5.30528	-0.00161793	   5.30528	  -40.4484	
   5.46937	-0.00159973	   5.45594	-0.00161636	   5.43655	-0.00161464	   5.45395	-0.00161024	   5.45395	  -40.2561	
   5.61645	-0.00159219	   5.60144	-0.00160834	   5.58722	-0.00160674	    5.6017	-0.00160242	    5.6017	  -40.0606	
   5.76311	-0.00158451	   5.74765	-0.00160022	   5.73828	-0.00159867	   5.74968	-0.00159446	   5.74968	  -39.8616	
   5.90952	-0.00157667	   5.89364	-0.00159196	   5.88504	-0.00159056	   5.89606	-0.0015864	   5.89606	  -39.6599	
   6.05543	-0.00156868	   6.03958	-0.00158356	   6.03433	-0.0015825	   6.04311	-0.00157825	   6.04311	  -39.4561	
   6.20107	-0.0015606	   6.18495	-0.00157506	   6.17945	-0.00157447	   6.18849	-0.00157004	   6.18849	  -39.2511	
   6.34599	-0.00155248	   6.32996	-0.00156649	   6.32668	-0.00156639	   6.33421	-0.00156178	   6.33421	  -39.0446	
   6.49042	-0.00154436	   6.47444	-0.00155788	   6.46987	-0.00155812	   6.47824	-0.00155346	   6.47824	  -38.8364	
   6.63456	-0.00153621	   6.61819	-0.00154927	   6.61506	-0.00154964	    6.6226	-0.00154504	    6.6226	   -38.626	
   6.77875	-0.00152799	   6.76088	-0.00154061	   6.75687	-0.00154097	    6.7655	-0.00153652	    6.7655	  -38.4131	
   6.92231	-0.00151965	   6.90339	-0.00153189	   6.89935	-0.00153223	   6.90835	-0.00152793	   6.90835	  -38.1982	
   7.06511	-0.00151118	   7.04592	-0.00152305	   7.04054	-0.00152355	   7.05053	-0.00151926	   7.05053	  -37.9815	
   7.20739	-0.00150258	   7.18795	-0.00151406	   7.18313	-0.00151493	   7.19282	-0.00151052	   7.19282	  -37.7631	
   7.34981	-0.00149389	   7.32984	-0.00150494	   7.32562	-0.00150633	   7.33509	-0.00150172	   7.33509	   -37.543	
   7.49172	-0.00148515	   7.47162	-0.00149574	    7.4687	-0.00149764	   7.47735	-0.00149284	   7.47735	  -37.3211	
   7.63335	-0.00147637	   7.61278	-0.00148651	   7.61113	-0.00148873	   7.61909	-0.00148387	   7.61909	  -37.0968	
   7.77463	-0.00146756	   7.75448	-0.00147726	   7.75363	-0.00147957	   7.76091	-0.0014748	   7.76091	  -36.8699	
   7.91551	-0.00145868	   7.89546	-0.00146799	   7.89426	-0.00147021	   7.90174	-0.00146563	   7.90174	  -36.6407	
   8.05601	-0.0014497	   8.03674	-0.00145866	   8.03461	-0.00146075	   8.04245	-0.00145637	   8.04245	  -36.4092	
   8.19602	-0.00144059	   8.17779	-0.0014492	   8.17351	-0.00145133	   8.18244	-0.00144704	   8.18244	  -36.1761	
   8.33591	-0.00143137	   8.31863	-0.00143961	   8.31204	-0.00144199	   8.32219	-0.00143766	   8.32219	  -35.9415	
   8.47576	-0.00142206	   8.45906	-0.0014299	   8.44985	-0.00143271	   8.46156	-0.00142823	   8.46156	  -35.7056	
   8.61535	-0.00141271	   8.59916	-0.00142012	   8.58767	-0.00142342	   8.60073	-0.00141875	   8.60073	  -35.4687	
   8.75421	-0.00140332	   8.73881	-0.00141031	    8.7243	-0.00141399	   8.73911	-0.00140921	   8.73911	  -35.2302	
   8.89273	-0.0013939	   8.87805	-0.00140048	   8.86089	-0.00140438	   8.87722	-0.00139959	   8.87722	  -34.9897	
   9.03103	-0.00138442	   9.01698	-0.00139062	   8.99695	-0.00139457	   9.01498	-0.00138987	   9.01498	  -34.7468	
   9.16924	-0.00137483	    9.1554	-0.00138069	   9.13288	-0.00138463	   9.15251	-0.00138005	   9.15251	  -34.5013	
   9.30789	-0.00136512	   9.29355	-0.00137064	   9.26855	-0.00137466	   9.28999	-0.00137014	   9.28999	  -34.2535	
   9.44593	-0.0013553	   9.43111	-0.00136047	   9.40356	-0.00136469	   9.42687	-0.00136015	   9.42687	  -34.0038	
   9.58292	-0.0013454	   9.56849	-0.00135019	   9.53821	-0.00135474	   9.56321	-0.00135011	   9.56321	  -33.7528	
   9.71931	-0.00133546	   9.70487	-0.00133984	   9.67294	-0.00134477	   9.69904	-0.00134002	   9.69904	  -33.5006	
   9.85533	-0.00132549	   9.84087	-0.00132947	   9.80692	-0.00133471	   9.83437	-0.00132989	   9.83437	  -33.2472	
   9.99111	-0.00131549	   9.97619	-0.00131907	   9.94101	-0.00132452	   9.96944	-0.00131969	   9.96944	  -32.9923	
   10.1263	-0.00130542	   10.1113	-0.00130862	   10.0751	-0.0013142	   10.1042	-0.00130941	   10.1042	  -32.7353	
   10.2615	-0.00129525	   10.2463	-0.0012981	   10.2088	-0.00130377	   10.2389	-0.00129904	   10.2389	   -32.476	
   10.3966	-0.00128498	   10.3811	-0.00128747	   10.3419	-0.0012933	   10.3732	-0.00128858	   10.3732	  -32.2145	
   10.5312	-0.00127461	   10.5152	-0.00127671	   10.4746	-0.00128278	    10.507	-0.00127803	    10.507	  -31.9508	
   10.6657	-0.00126416	   10.6485	-0.00126585	   10.6072	-0.00127222	   10.6405	-0.00126741	   10.6405	  -31.6853	
   10.7992	-0.00125369	   10.7811	-0.00125492	   10.7399	-0.00126159	   10.7734	-0.00125673	   10.7734	  -31.4184	
   10.9326	-0.00124318	   10.9127	-0.00124396	    10.872	-0.00125092	   10.9058	-0.00124602	   10.9058	  -31.1504	
   11.0654	-0.00123263	   11.0441	-0.00123296	   11.0043	-0.00124019	   11.0379	-0.00123526	   11.0379	  -30.8816	
    11.198	-0.00122203	   11.1748	-0.00122192	   11.1364	-0.00122939	   11.1697	-0.00122445	   11.1697	  -30.6112	
   11.3297	-0.00121134	   11.3057	-0.00121081	   11.2678	-0.00121852	    11.301	-0.00121356	    11.301	  -30.3389	
   11.4617	-0.00120058	   11.4371	-0.00119959	   11.3994	-0.00120755	   11.4327	-0.00120257	   11.4327	  -30.0643	
   11.5931	-0.00118972	   11.5679	-0.00118825	   11.5311	-0.00119647	    11.564	-0.00119148	    11.564	   -29.787	
   11.7246	-0.0011788	    11.698	-0.00117681	   11.6619	-0.00118526	   11.6948	-0.00118029	   11.6948	  -29.5072	
   11.8553	-0.00116783	   11.8281	-0.00116532	   11.7925	-0.00117391	   11.8253	-0.00116902	   11.8253	  -29.2255	
   11.9856	-0.00115682	    11.958	-0.00115378	   11.9226	-0.00116251	   11.9554	-0.0011577	   11.9554	  -28.9426	
   12.1156	-0.00114578	   12.0876	-0.0011422	   12.0524	-0.00115111	   12.0852	-0.00114636	   12.0852	  -28.6591	
   12.2451	-0.0011347	   12.2167	-0.00113061	   12.1819	-0.00113976	   12.2146	-0.00113502	   12.2146	  -28.3756	
   12.3745	-0.00112354	   12.3455	 -0.001119	   12.3114	-0.00112843	   12.3438	-0.00112366	   12.3438	  -28.0914	
   12.5038	-0.0011123	   12.4746	-0.00110738	   12.4405	-0.00111705	    12.473	-0.00111224	    12.473	  -27.8061	
   12.6327	-0.00110097	   12.6034	-0.00109568	   12.5696	-0.00110555	   12.6019	-0.00110073	   12.6019	  -27.5183	
    12.761	-0.00108958	   12.7316	-0.00108384	   12.6979	-0.00109387	   12.7302	-0.0010891	   12.7302	  -27.2275	
   12.8885	-0.00107815	    12.859	-0.00107182	   12.8253	-0.00108205	   12.8576	-0.00107734	   12.8576	  -26.9335	
   13.0155	-0.0010667	   12.9853	-0.00105961	   12.9524	-0.00107011	   12.9844	-0.00106547	   12.9844	  -26.6368	
   13.1414	-0.00105522	   13.1119	-0.00104733	   13.0787	-0.00105816	   13.1107	-0.00105357	   13.1107	  -26.3392	
   13.2668	-0.00104369	   13.2374	-0.00103505	    13.204	-0.00104619	    13.236	-0.00104164	    13.236	  -26.0411	
   13.3911	-0.00103207	   13.3625	-0.00102288	   13.3289	-0.00103425	   13.3608	-0.00102973	   13.3608	  -25.7433	
   13.5152	-0.00102034	    13.488	-0.00101082	   13.4532	-0.00102231	   13.4854	-0.00101782	   13.4854	  -25.4456	
   13.6382	-0.00100852	   13.6124	-0.0009988	   13.5772	-0.00101031	   13.6093	-0.00100588	   13.6093	  -25.1469	
   13.7612	-0.000996632	    13.738	-0.000986717	   13.7013	-0.000998216	   13.7335	-0.000993855	   13.7335	  -24.8464	
   13.8833	-0.00098474	   13.8635	-0.000974429	   13.8249	-0.000985996	   13.8572	-0.000981721	   13.8572	   -24.543	
   14.0048	-0.000972843	   13.9882	-0.000961907	   13.9473	-0.000973682	   13.9801	-0.000969477	   13.9801	  -24.2369	
   14.1255	-0.000960945	   14.1132	-0.000949212	   14.0703	-0.000961354	    14.103	-0.00095717	    14.103	  -23.9293	
   14.2454	-0.000948999	   14.2368	-0.000936463	   14.1931	-0.000949013	   14.2251	-0.000944825	   14.2251	  -23.6206	
    14.365	-0.000936984	   14.3592	-0.000923804	   14.3155	-0.000936654	   14.3465	-0.000932481	   14.3465	   -23.312	
   14.4841	-0.000924883	   14.4812	-0.000911265	   14.4367	-0.000924216	   14.4673	-0.000920122	   14.4673	   -23.003	
   14.6027	-0.000912699	   14.6018	-0.000898793	   14.5565	-0.000911662	    14.587	-0.000907718	    14.587	   -22.693	
   14.7206	-0.000900459	   14.7224	-0.000886273	   14.6759	-0.000898985	   14.7063	-0.000895239	   14.7063	   -22.381	
   14.8373	-0.000888174	   14.8411	-0.000873579	   14.7952	-0.000886195	   14.8246	-0.00088265	   14.8246	  -22.0662	
   14.9532	-0.000875863	   14.9602	-0.000860678	   14.9136	-0.000873388	   14.9423	-0.000869976	   14.9423	  -21.7494	
   15.0688	-0.000863533	   15.0781	-0.000847618	   15.0316	-0.000860614	   15.0595	-0.000857255	   15.0595	  -21.4314	
   15.1842	-0.000851168	    15.195	-0.000834514	   15.1496	-0.000847895	   15.1763	-0.000844526	   15.1763	  -21.1131	
   15.2991	-0.000838755	   15.3108	-0.00082148	    15.267	-0.000835183	   15.2923	-0.000831806	   15.2923	  -20.7951	
   15.4133	-0.000826272	    15.426	-0.000808546	   15.3839	-0.000822394	   15.4078	-0.000819071	   15.4078	  -20.4768	
   15.5274	-0.000813718	   15.5401	-0.000795673	   15.5006	-0.000809471	   15.5227	-0.000806287	   15.5227	  -20.1572	
   15.6412	-0.000801108	   15.6538	-0.00078274	    15.617	-0.000796405	   15.6373	-0.000793418	   15.6373	  -19.8354	
   15.7547	-0.000788462	   15.7667	-0.000769633	   15.7331	-0.000783253	   15.7515	-0.000780449	   15.7515	  -19.5112	
   15.8677	-0.000775802	   15.8787	-0.00075632	   15.8482	-0.000770098	   15.8649	-0.000767406	   15.8649	  -19.1852	
   15.9803	-0.000763126	   15.9894	-0.000742864	   15.9624	-0.000756993	   15.9774	-0.000754328	   15.9774	  -18.8582	
   16.0923	-0.000750419	   16.0996	-0.00072947	   16.0757	-0.000743942	   16.0892	-0.000741277	   16.0892	  -18.5319	
   16.2031	-0.00073766	    16.209	-0.000716219	   16.1883	-0.00073089	   16.2001	-0.000728257	   16.2001	  -18.2064	
   16.3127	-0.00072483	   16.3175	-0.000703107	   16.3001	-0.000717774	   16.3101	-0.000715237	   16.3101	  -17.8809	
   16.4219	-0.000711932	   16.4253	-0.000689985	   16.4112	-0.000704549	   16.4194	-0.000702155	   16.4194	  -17.5539	
   16.5308	-0.000698984	   16.5322	-0.000676674	   16.5217	-0.000691224	   16.5283	-0.000688961	   16.5283	   -17.224	
    16.639	-0.000686009	   16.6381	-0.000663139	   16.6316	-0.00067784	   16.6363	-0.000675663	   16.6363	  -16.8916	
   16.7467	-0.000673041	   16.7433	-0.000649382	   16.7403	-0.000664455	   16.7434	-0.000662293	   16.7434	  -16.5573	
   16.8538	-0.000660041	   16.8482	-0.000635581	   16.8483	-0.000651107	   16.8501	-0.000648909	   16.8501	  -16.2227	
   16.9605	-0.00064702	   16.9524	-0.000621883	   16.9557	-0.000637794	   16.9562	-0.000635566	   16.9562	  -15.8891	
   17.0667	-0.000633903	   17.0566	-0.000608348	    17.062	-0.000624482	   17.0618	-0.000622244	   17.0618	  -15.5561	
   17.1727	-0.000620666	   17.1605	-0.000594971	   17.1678	-0.000611125	    17.167	-0.000608921	    17.167	   -15.223	
   17.2777	-0.000607322	   17.2638	-0.000581569	    17.272	-0.000597682	   17.2712	-0.000595524	   17.2712	  -14.8881	
    17.382	-0.000593897	   17.3663	-0.000568023	   17.3754	-0.000584151	   17.3746	-0.000582024	   17.3746	  -14.5506	
   17.4855	-0.000580493	   17.4686	-0.000554222	   17.4781	-0.000570557	   17.4774	-0.000568424	   17.4774	  -14.2106	
   17.5882	-0.000567148	   17.5698	-0.000540216	   17.5801	-0.000556948	   17.5794	-0.000554771	   17.5794	  -13.8693	
   17.6908	-0.000553865	   17.6705	-0.000526135	   17.6816	-0.000543371	    17.681	-0.000541124	    17.681	  -13.5281	
   17.7928	-0.000540583	   17.7703	-0.00051214	   17.7824	-0.000529832	   17.7818	-0.000527518	   17.7818	   -13.188	
   17.8938	-0.000527216	   17.8692	-0.000498326	   17.8823	-0.0005163	   17.8818	-0.000513947	   17.8818	  -12.8487	
   17.9938	-0.000513718	   17.9674	-0.000484648	    17.981	-0.000502731	   17.9807	-0.000500366	   17.9807	  -12.5091	
   18.0932	-0.000500087	   18.0647	-0.000470979	   18.0792	-0.000489085	    18.079	-0.000486717	    18.079	  -12.1679	
   18.1918	-0.000486377	   18.1614	-0.000457176	   18.1767	-0.00047536	   18.1766	-0.000472971	   18.1766	  -11.8243	
   18.2892	-0.00047268	   18.2577	-0.000443166	   18.2732	-0.000461583	   18.2734	-0.000459143	   18.2734	  -11.4786	
   18.3862	-0.000459062	   18.3532	-0.000428978	    18.369	-0.000447799	   18.3695	-0.00044528	   18.3695	   -11.132	
   18.4823	-0.00044554	   18.4479	-0.000414741	   18.4637	-0.000434044	   18.4646	-0.000431442	   18.4646	   -10.786	
   18.5778	-0.000432058	   18.5413	-0.000400598	    18.558	-0.000420323	    18.559	-0.00041766	    18.559	  -10.4415	
   18.6731	-0.000418527	   18.6347	-0.00038663	   18.6522	-0.000406613	   18.6533	-0.000403923	   18.6533	  -10.0981	
   18.7674	-0.000404887	   18.7275	-0.000372806	   18.7453	-0.000392876	   18.7467	-0.00039019	   18.7467	  -9.75474	
    18.861	-0.000391073	   18.8197	-0.000358998	   18.8378	-0.000379083	   18.8395	-0.000376384	   18.8395	  -9.40961	
   18.9535	-0.000377181	   18.9109	-0.000345083	   18.9299	-0.000365228	   18.9314	-0.000362497	   18.9314	  -9.06243	
   19.0455	-0.000363263	   19.0013	-0.000330996	   19.0207	-0.000351364	   19.0225	-0.000348541	   19.0225	  -8.71353	
    19.137	-0.00034943	   19.0905	-0.00031677	   19.1104	-0.000337505	   19.1126	-0.000334568	   19.1126	  -8.36421	
   19.2279	-0.000335721	   19.1796	-0.000302522	   19.1989	-0.000323714	   19.2021	-0.000320653	   19.2021	  -8.01631	
    19.318	-0.000322077	   19.2677	-0.000288366	   19.2871	-0.000309943	   19.2909	-0.000306795	   19.2909	  -7.66988	
   19.4066	-0.000308433	   19.3554	-0.000274365	   19.3752	-0.00029615	    19.379	-0.000292983	    19.379	  -7.32457	
   19.4942	-0.000294664	   19.4422	-0.000260483	   19.4628	-0.00028229	   19.4664	-0.000279146	   19.4664	  -6.97865	
   19.5812	-0.000280729	   19.5278	-0.000246618	   19.5494	-0.000268343	   19.5528	-0.00026523	   19.5528	  -6.63076	
   19.6666	-0.000266679	   19.6135	-0.00023267	   19.6352	-0.000254383	   19.6384	-0.000251244	   19.6384	   -6.2811	
   19.7511	-0.000252607	   19.6976	-0.000218582	   19.7204	-0.000240465	   19.7231	-0.000237218	   19.7231	  -5.93045	
   19.8352	-0.000238639	   19.7811	-0.000204387	   19.8055	-0.000226646	   19.8073	-0.000223224	   19.8073	   -5.5806	
   19.9184	-0.000224819	   19.8636	-0.000190175	   19.8895	-0.000212915	   19.8905	-0.000209303	   19.8905	  -5.23258	
    20.001	-0.000211095	   19.9453	-0.000176038	   19.9725	-0.000199196	   19.9729	-0.000195443	   19.9729	  -4.88608	
   20.0827	-0.000197394	   20.0263	-0.000162031	   20.0547	-0.000185416	   20.0545	-0.000181614	   20.0545	  -4.54034	
   20.1639	-0.000183621	   20.1063	-0.000148127	   20.1358	-0.000171521	   20.1353	-0.000167756	   20.1353	   -4.1939	
   20.2439	-0.000169747	   20.1862	-0.000134246	   20.2157	-0.000157525	   20.2153	-0.000153839	   20.2153	  -3.84598	
   20.3223	-0.000155795	   20.2661	-0.000120299	    20.295	-0.000143502	   20.2944	-0.000139866	   20.2944	  -3.49664	
   20.3993	-0.000141827	   20.3456	-0.000106241	   20.3733	-0.000129529	   20.3727	-0.000125866	   20.3727	  -3.14665	
   20.4751	-0.000127956	   20.4242	-9.20956e-05	   20.4504	-0.000115663	   20.4499	-0.000111905	   20.4499	  -2.79762	
   20.5499	-0.000114204	   20.5024	-7.79452e-05	   20.5263	-0.000101888	   20.5262	-9.80124e-05	   20.5262	  -2.45031	
   20.6235	-0.000100537	   20.5794	-6.38697e-05	   20.6017	-8.81324e-05	   20.6015	-8.41797e-05	   20.6015	  -2.10449	
   20.6954	-8.68527e-05	   20.6561	-4.99148e-05	   20.6766	-7.43328e-05	    20.676	-7.03667e-05	    20.676	  -1.75917	
   20.7676	-7.30637e-05	   20.7317	-3.60529e-05	   20.7509	-6.04553e-05	   20.7501	-5.65239e-05	   20.7501	   -1.4131	
   20.8388	-5.91494e-05	   20.8061	-2.22091e-05	   20.8241	-4.65105e-05	    20.823	-4.2623e-05	    20.823	  -1.06558	
   20.9092	-4.51703e-05	   20.8795	-8.30506e-06	    20.897	-3.25587e-05	   20.8953	-2.8678e-05	   20.8953	 -0.716951	
   20.9792	-3.12161e-05	    20.952	5.69879e-06	   20.9693	-1.86393e-05	   20.9669	-1.47189e-05	   20.9669	 -0.367972	
   21.0493	-1.73941e-05	    21.024	1.97711e-05	   21.0405	-4.8043e-06	   21.0379	-8.09113e-07	   21.0379	-0.0202278	
   21.1189	-3.72187e-06	   21.0949	3.38378e-05	    21.111	8.98424e-06	   21.1083	1.30334e-05	   21.1083	  0.325835	
   21.1882	9.84534e-06	   21.1646	4.78337e-05	   21.1805	2.27989e-05	   21.1778	2.6826e-05	   21.1778	  0.670649	
   21.2569	2.34201e-05	    21.233	6.17304e-05	   21.2483	3.67046e-05	   21.2461	4.06184e-05	   21.2461	   1.01546	
   21.3252	3.70848e-05	   21.3009	7.55553e-05	   21.3143	5.07293e-05	   21.3135	5.44565e-05	   21.3135	   1.36141	
   21.3928	5.08708e-05	    21.368	8.94235e-05	     21.38	6.47917e-05	   21.3803	6.8362e-05	   21.3803	   1.70905	
   21.4592	6.47318e-05	   21.4343	0.000103328	   21.4435	7.88446e-05	   21.4457	8.23013e-05	   21.4457	   2.05753	
   21.5246	7.85724e-05	   21.5004	0.000117287	   21.5069	9.27334e-05	   21.5106	9.61974e-05	   21.5106	   2.40494	
   21.5894	9.23111e-05	   21.5655	0.000131248	   21.5704	0.000106431	   21.5751	0.000109996	   21.5751	   2.74991	
   21.6531	0.000105914	   21.6295	0.000145114	   21.6333	0.000119999	   21.6386	0.000123676	   21.6386	    3.0919	
   21.7159	0.000119428	   21.6926	0.00015891	   21.6964	0.000133557	   21.7016	0.000137299	   21.7016	   3.43246	
   21.7779	0.000132935	   21.7555	0.000172585	   21.7589	0.000147188	   21.7641	0.000150903	   21.7641	   3.77256	
   21.8386	0.000146506	   21.8172	0.000186233	   21.8219	0.000160955	   21.8259	0.000164565	   21.8259	   4.11412	
    21.899	0.000160164	   21.8783	 0.0001999	   21.8848	0.000174794	   21.8874	0.000178286	   21.8874	   4.45714	
   21.9585	0.000173861	   21.9385	0.000213605	   21.9473	0.000188609	   21.9481	0.000192025	   21.9481	   4.80063	
   22.0171	0.00018748	   21.9975	0.000227389	   22.0087	0.000202277	   22.0078	0.000205715	   22.0078	   5.14288	
    22.075	0.000200989	   22.0554	0.000241186	   22.0688	0.000215758	   22.0664	0.000219311	   22.0664	   5.48277	
   22.1336	0.000214392	   22.1131	0.000254951	   22.1277	0.000229085	   22.1248	0.000232809	   22.1248	   5.82023	
   22.1915	0.000227771	   22.1688	0.000268632	   22.1856	0.000242351	    22.182	0.000246251	    22.182	   6.15629	
   22.2488	0.000241183	   22.2238	0.000282206	   22.2419	0.000255681	   22.2382	0.00025969	   22.2382	   6.49225	
   22.3055	0.000254645	   22.2786	0.000295693	   22.2983	0.000269142	   22.2941	0.00027316	   22.2941	     6.829	
   22.3607	0.000268133	   22.3322	0.000309169	   22.3529	0.00028272	   22.3486	0.000286674	   22.3486	   7.16685	
    22.415	0.00028156	   22.3851	0.000322642	   22.4067	0.000296319	   22.4023	0.000300174	   22.4023	   7.50435	
   22.4683	0.000294876	    22.437	0.000336192	   22.4592	0.000309811	   22.4548	0.000313626	   22.4548	   7.84066	
   22.5204	0.000308056	    22.488	0.000349813	   22.5112	0.000323109	   22.5065	0.000326992	   22.5065	   8.17481	
   22.5715	0.000321148	   22.5381	0.000363468	   22.5623	0.000336227	   22.5573	0.000340281	   22.5573	   8.50702	
   22.6217	0.000334235	   22.5871	0.000377109	   22.6125	0.000349254	   22.6071	0.000353533	   22.6071	   8.83831	
   22.6714	0.000347375	   22.6355	0.000390636	   22.6619	0.000362332	   22.6562	0.000366781	   22.6562	   9.16952	
   22.7201	0.00036059	   22.6831	0.000404023	   22.7107	0.000375535	   22.7046	0.000380049	   22.7046	   9.50123	
   22.7675	0.000373826	   22.7299	0.000417289	   22.7582	0.000388857	   22.7519	0.000393324	   22.7519	   9.83311	
   22.8144	0.000387007	   22.7757	0.000430508	   22.8046	 0.0004022	   22.7982	0.000406572	   22.7982	   10.1643	
   22.8597	0.000400079	   22.8208	0.000443773	   22.8498	0.00041544	   22.8434	0.000419764	   22.8434	   10.4941	
   22.9038	0.000413032	   22.8647	0.000457114	   22.8949	0.000428513	   22.8878	0.000432886	   22.8878	   10.8222	
   22.9471	0.000425906	   22.9084	0.000470516	   22.9383	0.000441428	   22.9312	0.00044595	   22.9312	   11.1488	
   22.9901	0.000438767	    22.951	0.000483905	   22.9808	0.000454278	   22.9739	0.000458983	   22.9739	   11.4746	
   23.0319	0.000451667	   22.9932	0.000497198	   23.0225	0.000467157	   23.0159	0.000472007	   23.0159	   11.8002	
   23.0729	0.000464614	   23.0345	0.000510356	   23.0634	0.000480125	   23.0569	0.000485032	   23.0569	   12.1258	
   23.1131	0.000477572	   23.0748	0.000523393	   23.1028	0.000493182	   23.0969	0.000498049	   23.0969	   12.4512	
   23.1528	0.000490476	   23.1139	0.000536381	    23.142	0.000506249	   23.1362	0.000511035	   23.1362	   12.7759	
   23.1909	0.000503277	   23.1527	0.000549387	   23.1807	0.000519241	   23.1748	0.000523968	   23.1748	   13.0992	
   23.2276	0.000515957	   23.1904	0.000562449	    23.218	0.000532103	    23.212	0.000536836	    23.212	   13.4209	
    23.263	0.00052855	   23.2271	0.000575549	   23.2539	0.000544834	    23.248	0.000549644	    23.248	   13.7411	
   23.2975	0.000541126	   23.2625	0.000588625	   23.2888	 0.0005575	   23.2829	0.000562417	   23.2829	   14.0604	
   23.3309	0.000553731	   23.2973	0.000601615	   23.3224	0.000570173	   23.3169	0.000575173	   23.3169	   14.3793	
   23.3641	0.000566381	   23.3308	0.000614485	   23.3551	0.000582894	     23.35	0.00058792	     23.35	    14.698	
   23.3966	0.000579036	   23.3632	0.000627243	   23.3868	0.000595649	   23.3822	0.000600643	   23.3822	   15.0161	
   23.4281	0.000591636	    23.395	0.00063994	   23.4181	0.000608392	   23.4137	0.000613323	   23.4137	   15.3331	
   23.4588	0.000604126	    23.426	0.000652639	   23.4488	0.000621076	   23.4445	0.000625947	   23.4445	   15.6487	
   23.4888	0.000616496	    23.456	0.000665369	   23.4783	0.000633676	   23.4743	0.000638514	   23.4743	   15.9628	
   23.5175	0.000628778	   23.4855	0.000678122	   23.5062	0.000646198	   23.5031	0.000651032	   23.5031	   16.2758	
   23.5448	0.000641024	   23.5137	0.000690839	   23.5331	0.000658678	   23.5305	0.000663514	   23.5305	   16.5878	
   23.5713	0.000653298	   23.5413	0.000703455	   23.5602	0.000671163	   23.5576	0.000675972	   23.5576	   16.8993	
   23.5973	0.00066555	   23.5677	0.000715948	   23.5865	0.000683656	   23.5838	0.000688384	   23.5838	   17.2096	
   23.6228	0.000677786	   23.5928	0.000728344	   23.6119	0.000696143	   23.6092	0.000700758	   23.6092	   17.5189	
   23.6474	0.000689974	   23.6175	0.00074071	   23.6362	0.000708567	   23.6337	0.000713084	   23.6337	   17.8271	
   23.6713	0.000702143	   23.6417	0.000753108	   23.6595	0.000720897	   23.6575	0.000725383	   23.6575	   18.1346	
   23.6947	0.000714329	   23.6656	0.000765547	   23.6826	0.000733143	   23.6809	0.000737673	   23.6809	   18.4418	
   23.7165	0.00072653	   23.6893	0.000777973	   23.7051	0.000745336	   23.7037	0.000749946	   23.7037	   18.7487	
   23.7383	0.000738725	   23.7113	0.000790304	   23.7267	0.000757521	   23.7254	0.000762183	   23.7254	   19.0546	
   23.7597	0.000750819	    23.733	0.000802464	   23.7473	0.000769711	   23.7467	0.000774331	   23.7467	   19.3583	
   23.7797	0.000762756	   23.7539	0.000814457	   23.7675	0.000781825	    23.767	0.000786346	    23.767	   19.6587	
   23.7986	0.000774539	   23.7729	0.000826334	   23.7868	0.000793882	   23.7861	0.000798252	   23.7861	   19.9563	
   23.8165	0.000786224	   23.7912	0.000838203	    23.805	0.000805855	   23.8042	0.000810094	   23.8042	   20.2524	
   23.8337	0.000797913	   23.8081	0.000850125	   23.8222	0.000817804	   23.8213	0.000821948	   23.8213	   20.5487	
   23.8503	0.00080968	   23.8237	0.000862121	   23.8388	0.000829811	   23.8376	0.000833871	   23.8376	   20.8468	
   23.8655	0.000821518	   23.8388	0.000874131	   23.8549	0.00084188	   23.8531	0.000845843	   23.8531	   21.1461	
   23.8797	0.000833378	   23.8524	0.00088607	   23.8699	0.000853998	   23.8674	0.000857815	   23.8674	   21.4454	
   23.8934	0.000845148	   23.8653	0.000897859	    23.884	0.000865945	   23.8809	0.000869651	   23.8809	   21.7413	
   23.9057	0.000856747	   23.8776	0.000909473	   23.8969	0.000877698	   23.8934	0.000881306	   23.8934	   22.0327	
   23.9169	0.000868171	   23.8891	0.000920965	    23.908	0.000889228	   23.9047	0.000892788	   23.9047	   22.3197	
   23.9266	0.000879465	   23.9002	0.000932414	   23.9178	0.000900658	   23.9148	0.000904179	   23.9148	   22.6045	
   23.9357	0.000890739	     23.91	0.00094389	   23.9269	0.00091213	   23.9242	0.000915586	   23.9242	   22.8897	
   23.9441	0.000902065	   23.9185	0.000955418	   23.9356	 0.0009237	   23.9327	0.000927061	   23.9327	   23.1765	
   23.9514	0.000913456	   23.9264	0.000966959	   23.9433	0.000935321	   23.9404	0.000938579	   23.9404	   23.4645	
   23.9578	0.000924857	   23.9331	0.00097844	   23.9504	0.000946848	   23.9471	0.000950048	   23.9471	   23.7512	
   23.9634	0.00093617	   23.9385	0.000989787	   23.9566	0.000958168	   23.9528	0.000961375	   23.9528	   24.0344	
   23.9681	0.000947326	   23.9435	0.00100098	   23.9616	0.000969227	   23.9577	0.000972512	   23.9577	   24.3128	
    23.972	0.000958312	   23.9468	0.00101208	   23.9657	0.000980115	   23.9615	0.000983501	   23.9615	   24.5875	
    23.975	0.000969188	   23.9492	0.00102311	   23.9688	0.000990965	   23.9643	0.000994422	   23.9643	   24.8605	
   23.9773	0.000980047	   23.9507	0.00103415	   23.9717	0.00100191	   23.9666	0.00100537	   23.9666	   25.1342	
   23.9786	0.000990946	   23.9507	0.00104518	   23.9732	0.00101299	   23.9675	0.00101637	   23.9675	   25.4094	
   23.9794	0.00100188	   23.9498	0.00105621	   23.9742	0.00102412	   23.9678	 0.0010274	   23.9678	   25.6851	
   23.9792	0.00101279	   23.9473	0.00106718	   23.9744	0.00103517	   23.9669	0.00103838	   23.9669	   25.9595	
   23.9786	0.00102358	   23.9435	0.00107802	   23.9735	0.00104602	   23.9652	0.00104921	   23.9652	   26.2301	
   23.9773	0.00103421	   23.9388	0.00108876	   23.9713	0.00105662	   23.9624	0.00105986	   23.9624	   26.4966	
   23.9752	 0.0010447	   23.9331	 0.0010994	   23.9683	0.00106706	   23.9589	0.00107039	   23.9589	   26.7596	
   23.9718	0.00105511	   23.9266	0.00111001	   23.9645	0.00107744	   23.9543	0.00108085	   23.9543	   27.0213	
   23.9673	0.00106552	   23.9189	0.00112062	   23.9596	0.00108789	   23.9486	0.00109134	   23.9486	   27.2836	
   23.9621	0.00107597	    23.911	0.00113123	   23.9537	0.00109844	   23.9423	0.00110188	   23.9423	    27.547	
   23.9553	0.00108644	   23.9017	0.00114181	   23.9466	0.00110905	   23.9345	0.00111243	   23.9345	   27.8108	
   23.9465	0.00109687	   23.8916	 0.0011523	   23.9385	0.00111959	   23.9255	0.00112292	   23.9255	    28.073	
   23.9361	0.00110722	   23.8809	0.00116266	   23.9298	0.00112996	   23.9156	0.00113328	   23.9156	    28.332	
   23.9246	0.00111742	   23.8696	 0.0011729	   23.9199	0.00114011	   23.9047	0.00114348	   23.9047	    28.587	
   23.9121	0.00112749	   23.8569	0.00118307	   23.9088	0.00115009	   23.8926	0.00115355	   23.8926	   28.8388	
   23.8991	0.00113749	   23.8437	0.00119321	   23.8974	0.00116002	   23.8801	0.00116358	   23.8801	   29.0894	
   23.8854	0.00114748	   23.8292	0.00120337	   23.8851	   0.00117	   23.8666	0.00117362	   23.8666	   29.3405	
   23.8708	0.00115751	   23.8139	0.00121354	   23.8722	0.00118008	   23.8523	0.00118371	   23.8523	   29.5927	
   23.8556	0.00116759	   23.7979	0.00122366	    23.858	 0.0011902	   23.8372	0.00119382	   23.8372	   29.8454	
   23.8392	0.00117765	     23.78	 0.0012337	   23.8432	0.00120026	   23.8208	0.00120387	   23.8208	   30.0968	
   23.8216	 0.0011876	   23.7619	0.00124361	   23.8269	0.00121017	   23.8035	0.00121379	   23.8035	   30.3449	
    23.803	0.00119734	   23.7429	0.00125341	   23.8095	0.00121989	   23.7851	0.00122355	   23.7851	   30.5887	
   23.7839	0.00120687	   23.7228	0.00126314	   23.7906	0.00122948	   23.7658	0.00123316	   23.7658	    30.829	
   23.7637	0.00121627	    23.702	0.00127284	   23.7709	0.00123901	   23.7455	0.00124271	   23.7455	   31.0677	
   23.7425	0.00122564	   23.6808	 0.0012825	   23.7497	0.00124857	   23.7244	0.00125224	   23.7244	   31.3059	
   23.7205	0.00123511	   23.6587	0.00129212	   23.7274	0.00125818	   23.7022	 0.0012618	   23.7022	    31.545	
   23.6986	0.00124468	   23.6355	0.00130169	   23.7047	0.00126778	   23.6796	0.00127139	   23.6796	   31.7846	
   23.6756	 0.0012543	   23.6115	0.00131123	    23.681	0.00127733	   23.6561	0.00128095	   23.6561	   32.0239	
   23.6515	0.00126385	   23.5876	0.00132072	   23.6565	0.00128673	   23.6319	0.00129043	   23.6319	   32.2608	
   23.6268	0.00127319	   23.5623	0.00133012	   23.6314	  0.001296	   23.6069	0.00129977	   23.6069	   32.4942	
   23.6012	0.00128227	   23.5358	0.00133944	   23.6054	0.00130518	   23.5808	0.00130896	   23.5808	   32.7241	
   23.5745	0.00129117	   23.5088	0.00134864	    23.578	0.00131431	   23.5538	0.00131804	   23.5538	    32.951	
    23.547	0.00130002	   23.4815	0.00135774	   23.5499	0.00132346	   23.5261	0.00132707	   23.5261	   33.1768	
   23.5186	0.00130893	   23.4534	0.00136675	   23.5206	0.00133262	   23.4975	 0.0013361	   23.4975	   33.4026	
    23.489	0.00131794	   23.4244	0.00137571	   23.4897	0.00134177	   23.4677	0.00134514	   23.4677	   33.6285	
    23.458	0.00132697	   23.3943	0.00138465	   23.4581	0.00135083	   23.4368	0.00135415	   23.4368	   33.8538	
   23.4264	0.00133593	   23.3636	0.00139357	   23.4252	0.00135976	   23.4051	0.00136309	   23.4051	   34.0772	
   23.3936	0.00134473	   23.3318	0.00140243	   23.3915	0.00136858	   23.3723	0.00137191	   23.3723	   34.2979	
   23.3596	0.00135334	   23.2994	0.00141123	   23.3572	 0.0013773	   23.3387	0.00138062	   23.3387	   34.5156	
   23.3245	0.00136182	   23.2658	0.00141993	    23.322	0.00138599	   23.3041	0.00138925	   23.3041	   34.7312	
   23.2884	0.00137024	   23.2317	0.00142854	    23.286	0.00139468	   23.2687	0.00139782	   23.2687	   34.9454	
   23.2518	0.00137868	   23.1966	0.00143707	   23.2489	0.00140333	   23.2324	0.00140636	   23.2324	   35.1589	
   23.2144	0.00138716	   23.1607	0.00144555	   23.2112	 0.0014119	   23.1954	0.00141487	   23.1954	   35.3717	
   23.1761	0.00139565	   23.1236	0.00145399	   23.1723	0.00142035	   23.1573	0.00142333	   23.1573	   35.5832	
   23.1367	0.00140408	   23.0855	0.00146239	   23.1327	0.00142871	   23.1183	0.00143172	   23.1183	   35.7931	
   23.0968	0.00141236	   23.0462	0.00147074	   23.0926	0.00143702	   23.0786	0.00144004	   23.0786	   36.0011	
   23.0562	0.00142049	   23.0062	0.00147904	    23.051	0.00144533	   23.0378	0.00144829	   23.0378	   36.2072	
   23.0144	0.00142849	   22.9656	0.00148726	   23.0082	0.00145366	   22.9961	0.00145647	   22.9961	   36.4117	
    22.972	0.00143644	   22.9245	 0.0014954	   22.9647	0.00146195	   22.9537	 0.0014646	   22.9537	   36.6149	
   22.9289	0.00144441	   22.8827	0.00150345	   22.9206	0.00147016	   22.9107	0.00147267	   22.9107	   36.8168	
   22.8843	 0.0014524	   22.8402	0.00151145	    22.875	0.00147824	   22.8665	 0.0014807	   22.8665	   37.0174	
   22.8391	0.00146039	   22.7967	 0.0015194	    22.829	0.00148618	   22.8216	0.00148866	   22.8216	   37.2165	
   22.7933	0.00146832	   22.7522	0.00152732	   22.7817	0.00149402	   22.7758	0.00149655	   22.7758	   37.4138	
   22.7468	0.00147612	   22.7066	0.00153519	   22.7335	0.00150182	    22.729	0.00150438	    22.729	   37.6095	
   22.6992	 0.0014838	   22.6595	0.00154301	    22.684	0.00150963	   22.6809	0.00151214	   22.6809	   37.8036	
   22.6508	0.00149138	   22.6117	0.00155074	    22.634	0.00151745	   22.6321	0.00151986	   22.6321	   37.9964	
   22.6014	0.00149897	   22.5628	0.00155838	   22.5831	0.00152525	   22.5824	0.00152754	   22.5824	   38.1884	
   22.5512	0.00150662	   22.5128	0.00156592	   22.5313	0.00153298	   22.5318	0.00153517	   22.5318	   38.3793	
   22.5001	0.00151426	   22.4616	0.00157339	   22.4783	0.00154057	     22.48	0.00154274	     22.48	   38.5685	
   22.4481	0.00152176	   22.4093	0.00158085	   22.4244	0.00154802	   22.4273	0.00155021	   22.4273	   38.7552	
   22.3955	0.00152906	   22.3564	 0.0015883	   22.3694	0.00155538	   22.3738	0.00155758	   22.3738	   38.9395	
   22.3424	0.00153617	   22.3025	0.00159573	   22.3139	 0.0015627	   22.3196	0.00156487	   22.3196	   39.1217	
    22.289	0.00154316	   22.2479	0.00160311	   22.2575	0.00157003	   22.2648	 0.0015721	   22.2648	   39.3025	
   22.2368	 0.0015502	   22.1928	0.00161039	   22.2007	0.00157738	   22.2101	0.00157932	   22.2101	   39.4831	
   22.1833	0.00155736	   22.1371	0.00161754	   22.1434	0.00158473	   22.1546	0.00158655	   22.1546	   39.6636	
   22.1285	0.00156472	   22.0796	0.00162459	   22.0853	0.00159199	   22.0978	0.00159377	   22.0978	   39.8442	
   22.0676	0.00157212	   22.0223	0.00163155	   22.0274	0.00159915	   22.0391	0.00160094	   22.0391	   40.0236	
   22.0064	0.00157932	   21.9637	0.00163845	   21.9686	0.00160617	   21.9796	0.00160798	   21.9796	   40.1995	
   21.9408	0.00158616	   21.9046	0.00164531	   21.9091	0.00161305	   21.9181	0.00161484	   21.9181	   40.3709	
   21.8754	0.00159258	   21.8442	0.00165214	   21.8483	0.00161984	    21.856	0.00162152	    21.856	    40.538	
    21.809	0.00159877	   21.7829	0.00165896	   21.7867	0.00162659	   21.7929	0.00162811	   21.7929	   40.7026	
   21.7445	0.00160497	   21.7204	0.00166574	   21.7248	0.00163337	   21.7299	 0.0016347	   21.7299	   40.8674	
    21.679	0.00161144	   21.6569	0.00167244	   21.6619	0.00164019	    21.666	0.00164136	    21.666	    41.034	
   21.6148	0.00161824	   21.5927	0.00167902	   21.5987	0.00164701	   21.6021	0.00164809	   21.6021	   41.2023	
    21.547	0.00162521	   21.5276	 0.0016855	   21.5345	0.00165375	   21.5364	0.00165482	   21.5364	   41.3705	
   21.4793	0.00163207	   21.4614	0.00169187	   21.4696	0.00166034	   21.4701	0.00166143	   21.4701	   41.5357	
   21.4071	0.00163861	   21.3944	0.00169818	   21.4043	0.00166678	   21.4019	0.00166786	   21.4019	   41.6964	
   21.3346	0.00164472	   21.3266	0.00170447	   21.3377	0.00167309	    21.333	0.00167409	    21.333	   41.8523	
   21.2603	0.00165056	   21.2578	0.00171074	   21.2701	0.00167934	   21.2627	0.00168021	   21.2627	   42.0053	
   21.1861	0.00165636	   21.1881	0.00171698	   21.2017	0.00168559	    21.192	0.00168631	    21.192	   42.1577	
   21.1112	0.00166234	   21.1175	0.00172316	   21.1331	0.00169186	   21.1206	0.00169246	   21.1206	   42.3114	
   21.0373	0.00166863	   21.0458	0.00172927	    21.063	0.00169813	   21.0487	0.00169867	   21.0487	   42.4669	
   20.9636	0.00167508	   20.9731	0.00173528	   20.9924	0.00170434	   20.9764	 0.0017049	   20.9764	   42.6224	
   20.8897	0.00168148	   20.8991	 0.0017412	   20.9209	0.00171043	   20.9032	0.00171104	   20.9032	   42.7759	
   20.8144	 0.0016876	   20.8247	0.00174705	   20.8493	0.00171637	   20.8295	0.00171701	   20.8295	   42.9252	
   20.7388	0.00169334	   20.7498	0.00175283	    20.777	 0.0017222	   20.7552	0.00172279	   20.7552	   43.0697	
   20.6625	 0.0016987	    20.674	0.00175854	   20.7044	0.00172796	   20.6803	 0.0017284	   20.6803	     43.21	
   20.5852	  0.001704	   20.5974	 0.0017642	   20.6307	0.00173372	   20.6044	0.00173397	   20.6044	   43.3493	
   20.5073	0.00170951	   20.5203	 0.0017698	   20.5555	0.00173947	   20.5277	0.00173959	   20.5277	   43.4898	
   20.4284	0.00171538	   20.4423	0.00177535	   20.4792	0.00174521	     20.45	0.00174531	     20.45	   43.6329	
   20.3489	0.00172152	    20.364	0.00178086	   20.4015	0.00175088	   20.3715	0.00175109	   20.3715	   43.7771	
   20.2696	0.00172763	   20.2849	0.00178631	   20.3231	0.00175643	   20.2925	0.00175679	   20.2925	   43.9198	
   20.1892	0.00173346	   20.2048	0.00179168	   20.2433	0.00176185	   20.2124	0.00176233	   20.2124	   44.0582	
   20.1085	0.00173877	   20.1232	0.00179697	   20.1629	0.00176716	   20.1315	0.00176763	   20.1315	   44.1908	
   20.0268	0.00174369	   20.0415	0.00180219	   20.0813	0.00177242	   20.0499	0.00177277	   20.0499	   44.3192	
   19.9442	0.00174847	   19.9589	0.00180734	   19.9991	0.00177766	   19.9674	0.00177783	   19.9674	   44.4456	
   19.8605	0.00175342	   19.8752	0.00181243	   19.9156	0.00178292	   19.8838	0.00178292	   19.8838	   44.5731	
   19.7766	0.00175874	   19.7908	0.00181747	    19.831	0.00178816	   19.7995	0.00178812	   19.7995	    44.703	
   19.6924	0.00176434	   19.7059	0.00182245	   19.7459	0.00179334	   19.7147	0.00179338	   19.7147	   44.8344	
   19.6074	   0.00177	   19.6198	0.00182738	   19.6599	0.00179841	    19.629	0.00179859	    19.629	   44.9648	
   19.5215	0.00177537	   19.5333	0.00183225	   19.5732	0.00180334	   19.5427	0.00180366	   19.5427	   45.0914	
   19.4347	0.00178028	   19.4459	0.00183706	   19.4856	0.00180819	   19.4554	0.00180851	   19.4554	   45.2127	
    19.347	0.00178478	   19.3575	 0.0018418	   19.3972	0.00181298	   19.3672	0.00181318	   19.3672	   45.3296	
   19.2589	0.00178912	   19.2686	0.00184645	   19.3081	0.00181776	   19.2785	0.00181778	   19.2785	   45.4444	
     19.17	0.00179362	   19.1787	0.00185103	   19.2181	0.00182255	   19.1889	 0.0018224	   19.1889	     45.56	
   19.0805	0.00179846	   19.0876	0.00185554	   19.1277	0.00182733	   19.0986	0.00182711	   19.0986	   45.6778	
   18.9897	0.00180355	   18.9959	0.00186001	   19.0364	0.00183207	   19.0073	0.00183187	   19.0073	   45.7969	
   18.8985	0.00180866	   18.9034	0.00186442	   18.9447	0.00183669	   18.9155	0.00183659	   18.9155	   45.9148	
   18.8064	0.00181349	   18.8099	0.00186878	   18.8524	0.00184116	   18.8229	0.00184115	   18.8229	   46.0287	
   18.7131	0.00181791	   18.7154	0.00187308	   18.7587	0.00184548	   18.7291	0.00184549	   18.7291	   46.1373	
   18.6194	  0.001822	   18.6205	 0.0018773	   18.6649	0.00184969	   18.6349	0.00184966	   18.6349	   46.2416	
   18.5246	0.00182593	    18.525	0.00188145	   18.5707	0.00185388	   18.5401	0.00185375	   18.5401	   46.3438	
   18.4285	0.00182998	   18.4285	0.00188552	   18.4756	0.00185809	   18.4442	0.00185786	   18.4442	   46.4466	
   18.3315	0.00183426	   18.3315	0.00188953	   18.3794	0.00186233	   18.3475	0.00186204	   18.3475	    46.551	
   18.2341	0.00183873	   18.2336	0.00189348	   18.2821	0.00186657	     18.25	0.00186626	     18.25	   46.6566	
   18.1365	0.00184322	   18.1351	 0.0018974	   18.1846	0.00187071	   18.1521	0.00187044	   18.1521	    46.761	
   18.0378	0.00184747	   18.0356	0.00190127	   18.0859	0.00187472	   18.0531	0.00187449	   18.0531	   46.8622	
   17.9389	0.00185139	   17.9359	 0.0019051	   17.9865	0.00187861	   17.9538	0.00187836	   17.9538	   46.9591	
   17.8382	  0.001855	   17.8348	 0.0019089	   17.8864	 0.0018824	   17.8531	 0.0018821	   17.8531	   47.0525	
   17.7375	0.00185847	   17.7331	0.00191263	   17.7857	0.00188614	   17.7521	0.00188575	   17.7521	   47.1436	
   17.6361	0.00186201	   17.6307	0.00191624	   17.6842	0.00188983	   17.6503	0.00188936	   17.6503	   47.2341	
   17.5337	0.00186575	   17.5278	0.00191965	   17.5816	 0.0018935	   17.5477	0.00189297	   17.5477	   47.3242	
   17.4305	0.00186965	   17.4248	0.00192291	   17.4788	0.00189712	   17.4447	0.00189656	   17.4447	    47.414	
   17.3267	0.00187354	   17.3214	 0.0019261	   17.3754	0.00190068	   17.3412	0.00190011	   17.3412	   47.5027	
   17.2219	0.00187723	   17.2201	0.00192933	   17.2708	0.00190417	   17.2376	0.00190358	   17.2376	   47.5894	
   17.1166	0.00188063	   17.1165	0.00193267	   17.1655	0.00190758	   17.1329	0.00190696	   17.1329	    47.674	
   17.0104	0.00188375	   17.0152	0.00193609	   17.0592	0.00191095	   17.0283	0.00191026	   17.0283	   47.7566	
   16.9037	0.00188678	   16.9084	 0.0019395	   16.9525	0.00191426	   16.9215	0.00191351	   16.9215	   47.8378	
   16.7961	0.00188987	    16.803	0.00194275	   16.8446	0.00191754	   16.8146	0.00191672	   16.8146	   47.9179	
   16.6877	0.00189312	   16.6924	0.00194575	   16.7362	0.00192078	   16.7054	0.00191988	   16.7054	    47.997	
   16.5781	0.00189648	   16.5829	0.00194852	   16.6272	0.00192396	   16.5961	0.00192299	   16.5961	   48.0747	
   16.4679	0.00189981	   16.4723	0.00195119	   16.5174	0.00192706	   16.4859	0.00192602	   16.4859	   48.1505	
   16.3573	0.00190295	   16.3619	0.00195388	   16.4066	0.00193008	   16.3753	0.00192897	   16.3753	   48.2242	
   16.2457	0.00190582	   16.2505	0.00195666	   16.2949	0.00193301	   16.2637	0.00193183	   16.2637	   48.2957	
   16.1326	0.00190848	   16.1388	0.00195951	   16.1834	0.00193588	   16.1516	0.00193462	   16.1516	   48.3655	
   16.0191	0.00191106	    16.027	0.00196232	   16.0716	0.00193872	   16.0392	0.00193737	   16.0392	   48.4342	
   15.9051	 0.0019137	   15.9147	  0.001965	    15.959	0.00194158	   15.9262	 0.0019401	   15.9262	   48.5024	
   15.7906	0.00191648	   15.8014	0.00196749	   15.8452	0.00194444	   15.8124	0.00194281	   15.8124	   48.5701	
   15.6761	0.00191935	   15.6884	0.00196981	   15.7312	0.00194725	   15.6986	0.00194547	   15.6986	   48.6367	
    15.561	0.00192217	   15.5738	0.00197205	   15.6166	0.00194997	   15.5838	0.00194807	   15.5838	   48.7017	
   15.4457	0.00192481	   15.4593	0.00197431	   15.5012	0.00195255	   15.4688	0.00195056	   15.4688	    48.764	
   15.3295	 0.0019272	    15.343	0.00197664	   15.3853	  0.001955	   15.3526	0.00195295	   15.3526	   48.8236	
    15.212	0.00192941	   15.2262	  0.001979	   15.2688	0.00195735	   15.2357	0.00195525	   15.2357	   48.8814	
   15.0941	0.00193156	   15.1093	0.00198133	   15.1516	0.00195971	   15.1183	0.00195753	   15.1183	   48.9384	
   14.9753	0.00193378	   14.9916	0.00198352	   15.0335	0.00196212	   15.0002	0.00195981	   15.0002	   48.9952	
   14.8564	0.00193611	   14.8733	0.00198554	   14.9141	0.00196455	   14.8813	0.00196207	   14.8813	   49.0517	
    14.737	0.00193849	   14.7544	 0.0019874	    14.794	0.00196694	   14.7618	0.00196428	   14.7618	    49.107	
   14.6171	 0.0019408	   14.6347	0.00198918	   14.6734	0.00196922	   14.6417	 0.0019664	   14.6417	     49.16	
   14.4967	0.00194293	   14.5144	0.00199097	    14.552	0.00197131	    14.521	 0.0019684	    14.521	   49.2101	
   14.3762	0.00194485	   14.3934	0.00199281	   14.4305	0.00197322	      14.4	0.00197029	      14.4	   49.2574	
   14.2548	0.00194661	   14.2716	0.00199469	   14.3086	0.00197502	   14.2783	0.00197211	   14.2783	   49.3027	
   14.1334	0.00194834	   14.1493	0.00199653	   14.1853	0.00197681	    14.156	0.00197389	    14.156	   49.3473	
   14.0111	0.00195011	   14.0257	0.00199824	   14.0613	0.00197866	   14.0327	0.00197567	   14.0327	   49.3918	
   13.8884	0.00195197	    13.901	 0.0019998	    13.936	0.00198058	   13.9085	0.00197745	   13.9085	   49.4363	
   13.7656	0.00195384	   13.7764	0.00200124	   13.8102	0.00198248	   13.7841	0.00197919	   13.7841	   49.4797	
   13.6424	0.00195561	   13.6507	0.00200262	   13.6837	0.00198428	   13.6589	0.00198084	   13.6589	   49.5209	
   13.5181	0.00195722	   13.5248	0.00200398	   13.5563	 0.0019859	   13.5331	0.00198237	   13.5331	   49.5592	
   13.3938	0.00195867	   13.3977	0.00200534	   13.4282	0.00198735	   13.4066	0.00198379	   13.4066	   49.5947	
   13.2687	0.00196002	   13.2706	 0.0020067	   13.2996	 0.0019887	   13.2796	0.00198514	   13.2796	   49.6286	
   13.1434	0.00196136	   13.1433	0.00200801	    13.171	0.00199003	   13.1526	0.00198647	   13.1526	   49.6617	
   13.0174	0.00196275	   13.0154	0.00200923	   13.0421	0.00199139	    13.025	0.00198779	    13.025	   49.6947	
   12.8908	0.00196417	   12.8874	0.00201032	   12.9125	 0.0019928	   12.8969	 0.0019891	   12.8969	   49.7274	
   12.7629	0.00196557	   12.7594	0.00201126	   12.7831	0.00199418	   12.7685	0.00199034	   12.7685	   49.7584	
   12.6347	0.00196684	   12.6313	0.00201211	    12.653	0.00199546	   12.6397	0.00199147	   12.6397	   49.7868	
   12.5058	0.00196794	   12.5031	0.00201292	   12.5223	0.00199658	   12.5104	0.00199248	   12.5104	    49.812	
   12.3763	0.00196884	    12.374	 0.0020138	   12.3909	0.00199755	   12.3804	 0.0019934	   12.3804	    49.835	
   12.2464	0.00196966	   12.2447	0.00201475	   12.2587	0.00199842	   12.2499	0.00199428	   12.2499	    49.857	
   12.1162	0.00197049	   12.1152	0.00201574	    12.126	0.00199926	   12.1191	0.00199516	   12.1191	   49.8791	
   11.9856	0.00197141	    11.985	0.00201666	    11.993	0.00200012	   11.9879	0.00199606	   11.9879	   49.9016	
   11.8548	0.00197241	   11.8537	0.00201739	   11.8601	  0.002001	   11.8562	0.00199693	   11.8562	   49.9233	
    11.723	0.00197334	   11.7227	0.00201787	   11.7272	0.00200184	   11.7243	0.00199768	   11.7243	   49.9421	
   11.5909	0.00197411	   11.5913	0.00201804	   11.5943	0.00200257	   11.5922	0.00199824	   11.5922	    49.956	
   11.4582	0.00197465	   11.4593	0.00201812	   11.4608	0.00200314	   11.4594	0.00199863	   11.4594	   49.9659	
   11.3246	0.00197501	   11.3264	0.00201828	   11.3271	0.00200357	    11.326	0.00199895	    11.326	   49.9738	
   11.1913	0.00197535	   11.1929	0.00201868	   11.1929	0.00200393	   11.1924	0.00199932	   11.1924	    49.983	
    11.058	0.00197578	   11.0584	0.00201931	   11.0583	 0.0020043	   11.0583	0.00199979	   11.0583	   49.9949	
   10.9237	0.00197635	   10.9227	0.00201994	   10.9227	 0.0020047	    10.923	0.00200033	    10.923	   50.0083	
   10.7889	0.00197697	   10.7858	0.00202039	   10.7867	0.00200512	   10.7871	0.00200083	   10.7871	   50.0207	
   10.6535	0.00197749	   10.6492	0.00202043	   10.6506	0.00200546	   10.6511	0.00200113	   10.6511	   50.0282	
   10.5174	0.00197778	   10.5123	0.00202011	   10.5145	0.00200567	   10.5147	0.00200118	   10.5147	   50.0296	
   10.3808	 0.0019778	   10.3745	0.00201958	   10.3782	 0.0020057	   10.3778	0.00200103	   10.3778	   50.0257	
   10.2438	0.00197765	   10.2364	 0.0020191	   10.2414	 0.0020056	   10.2405	0.00200078	   10.2405	   50.0196	
   10.1061	 0.0019775	   10.0977	0.00201883	    10.104	0.00200544	   10.1026	0.00200059	   10.1026	   50.0148	
   9.96744	0.00197745	   9.95803	0.00201878	    9.9667	0.00200527	   9.96406	 0.0020005	   9.96406	   50.0125	
   9.82835	0.00197755	   9.81799	0.00201881	   9.82919	0.00200515	   9.82518	 0.0020005	   9.82518	   50.0125	
   9.68905	0.00197768	   9.67744	0.00201868	   9.69098	0.00200504	   9.68582	0.00200046	   9.68582	   50.0116	
   9.54921	0.00197769	   9.53728	0.00201824	   9.55211	0.00200488	    9.5462	0.00200027	    9.5462	   50.0068	
   9.40881	0.00197748	   9.39656	0.00201748	   9.41257	0.00200463	   9.40598	0.00199986	   9.40598	   49.9965	
   9.26778	0.00197701	   9.25555	0.00201654	   9.27299	0.00200421	   9.26544	0.00199926	   9.26544	   49.9814	
   9.12635	0.00197639	   9.11411	0.00201564	   9.13319	0.00200366	   9.12455	0.00199857	   9.12455	   49.9641	
   8.98445	0.00197575	   8.97261	0.00201491	   8.99361	0.00200304	   8.98356	 0.0019979	   8.98356	   49.9475	
   8.84251	0.00197518	   8.83099	0.00201434	   8.85402	 0.0020024	   8.84251	0.00199731	   8.84251	   49.9327	
   8.70007	0.00197466	   8.68882	0.00201381	   8.71401	0.00200179	   8.70097	0.00199675	   8.70097	   49.9189	
   8.55667	0.00197413	   8.54631	0.00201312	    8.5738	0.00200119	   8.55893	0.00199615	   8.55893	   49.9038	
   8.41375	0.00197352	   8.40375	0.00201215	   8.43416	0.00200054	   8.41722	0.00199541	   8.41722	   49.8851	
   8.27038	0.00197277	   8.26067	0.00201091	   8.29426	0.00199978	    8.2751	0.00199448	    8.2751	   49.8621	
     8.127	0.00197184	   8.11683	0.00200956	   8.15362	0.00199886	   8.13248	0.00199342	   8.13248	   49.8355	
   7.98242	0.00197078	   7.97248	0.00200826	   8.01245	0.00199781	   7.98912	0.00199228	   7.98912	   49.8071	
   7.83581	0.00196972	   7.82775	 0.0020071	   7.87141	0.00199664	   7.84499	0.00199115	   7.84499	   49.7788	
    7.6883	0.00196869	   7.68305	0.00200599	   7.73028	0.00199546	   7.70055	0.00199005	   7.70055	   49.7512	
   7.53948	0.00196772	   7.53778	0.00200483	   7.58816	0.00199429	   7.55514	0.00198894	   7.55514	   49.7236	
   7.39205	0.00196669	   7.39182	0.00200348	   7.44565	0.00199316	   7.40984	0.00198778	   7.40984	   49.6944	
   7.24411	0.00196552	   7.24517	0.00200188	   7.30286	0.00199209	   7.26405	 0.0019865	   7.26405	   49.6624	
   7.09639	0.00196417	   7.09854	 0.0020001	   7.15962	0.00199096	   7.11819	0.00198508	   7.11819	    49.627	
   6.94952	0.00196264	   6.95156	0.00199829	   7.01559	0.00198971	   6.97222	0.00198355	   6.97222	   49.5887	
   6.80394	0.00196107	   6.80377	0.00199656	     6.871	 0.0019882	   6.82624	0.00198194	   6.82624	   49.5486	
   6.65941	 0.0019595	   6.65586	0.00199497	   6.72626	0.00198645	   6.68051	 0.0019803	   6.68051	   49.5076	
   6.51549	0.00195801	   6.50822	0.00199339	   6.58106	0.00198456	   6.53492	0.00197865	   6.53492	   49.4664	
   6.37181	0.00195653	   6.36006	0.00199172	    6.4356	0.00198263	   6.38916	0.00197696	   6.38916	   49.4239	
   6.22613	0.00195495	   6.21162	0.00198981	   6.29045	0.00198081	   6.24274	0.00197519	   6.24274	   49.3797	
   6.08061	0.00195322	   6.06355	0.00198766	   6.14516	 0.0019791	   6.09644	0.00197333	   6.09644	   49.3331	
    5.9339	0.00195129	   5.91507	0.00198536	   5.99899	0.00197744	   5.94932	0.00197136	   5.94932	   49.2841	
   5.78839	0.00194923	   5.76657	0.00198303	   5.85305	0.00197569	   5.80267	0.00196932	   5.80267	   49.2329	
   5.64078	0.00194712	   5.61793	0.00198079	   5.70682	0.00197372	   5.65518	0.00196721	   5.65518	   49.1802	
   5.49431	0.00194504	    5.4684	0.00197863	    5.5601	0.00197151	    5.5076	0.00196506	    5.5076	   49.1265	
   5.34715	0.00194301	   5.31903	 0.0019765	   5.41303	0.00196909	   5.35974	0.00196287	   5.35974	   49.0717	
    5.1996	0.00194094	   5.17018	0.00197426	   5.26566	0.00196659	   5.21181	 0.0019606	   5.21181	    49.015	
   5.05156	0.00193873	    5.0213	0.00197181	   5.11786	0.00196414	   5.06358	0.00195823	   5.06358	   48.9558	
   4.90385	0.00193636	   4.87287	0.00196915	    4.9697	0.00196177	   4.91547	0.00195576	   4.91547	   48.8941	
   4.75598	0.00193385	    4.7241	0.00196634	   4.82145	0.00195943	   4.76718	0.00195321	   4.76718	   48.8302	
   4.60753	0.00193127	    4.5759	 0.0019635	   4.67275	0.00195701	   4.61873	0.00195059	   4.61873	   48.7648	
   4.45774	0.00192865	   4.42806	0.00196072	   4.52383	 0.0019544	   4.46988	0.00194793	   4.46988	   48.6981	
   4.30843	0.00192606	   4.27932	0.00195802	   4.37466	0.00195157	    4.3208	0.00194522	    4.3208	   48.6305	
   4.15841	0.00192346	    4.1307	0.00195532	   4.22509	0.00194856	    4.1714	0.00194245	    4.1714	   48.5612	
    4.0088	0.00192082	    3.9817	0.00195252	   4.07529	0.00194547	   4.02193	 0.0019396	   4.02193	   48.4901	
   3.85941	0.00191809	   3.83223	0.00194951	   3.92445	0.00194241	   3.87203	0.00193667	   3.87203	   48.4168	
   3.71008	0.00191524	   3.68286	 0.0019463	   3.77356	0.00193942	   3.72217	0.00193366	   3.72217	   48.3414	
   3.56079	 0.0019123	   3.53355	0.00194295	    3.6223	0.00193646	   3.57221	0.00193057	   3.57221	   48.2643	
    3.4106	0.00190925	   3.38438	0.00193956	   3.47075	0.00193343	   3.42191	0.00192741	   3.42191	   48.1853	
   3.26079	0.00190614	   3.23452	 0.0019362	   3.31847	0.00193022	   3.27126	0.00192419	   3.27126	   48.1047	
   3.11027	0.00190299	   3.08397	0.00193288	    3.1663	 0.0019268	   3.12018	0.00192089	   3.12018	   48.0222	
   2.96007	0.00189982	   2.93377	0.00192953	    3.0141	 0.0019232	   2.96931	0.00191752	   2.96931	    47.938	
   2.80883	0.00189663	   2.78391	0.00192608	   2.86218	0.00191952	    2.8183	0.00191408	    2.8183	   47.8519	
   2.65819	0.00189337	   2.63354	0.00192245	    2.7097	0.00191586	   2.66714	0.00191056	   2.66714	    47.764	
   2.50653	0.00189001	   2.48384	0.00191863	   2.55701	0.00191226	   2.51579	0.00190697	   2.51579	   47.6741	
    2.3549	0.00188651	   2.33374	0.00191469	   2.40511	0.00190868	   2.36458	0.00190329	   2.36458	   47.5823	
   2.20283	0.00188289	   2.18307	0.00191069	   2.25293	0.00190502	   2.21295	0.00189953	   2.21295	   47.4883	
   2.05091	0.00187919	   2.03209	 0.0019067	   2.10072	0.00190119	   2.06124	0.00189569	   2.06124	   47.3923	
    1.8977	0.00187545	    1.8806	0.00190272	   1.94919	0.00189717	   1.90916	0.00189178	   1.90916	   47.2945	
   1.74431	 0.0018717	   1.72961	 0.0018987	   1.79798	0.00189298	    1.7573	0.00188779	    1.7573	   47.1948	
   1.59079	0.00186791	   1.57759	0.00189458	   1.64693	0.00188871	    1.6051	0.00188373	    1.6051	   47.0934	
   1.43839	0.00186403	   1.42584	 0.0018903	   1.49555	0.00188445	   1.45326	0.00187959	   1.45326	   46.9898	
   1.28568	0.00186001	   1.27414	0.00188586	   1.34398	0.00188022	   1.30127	0.00187537	   1.30127	   46.8841	
   1.13382	0.00185585	   1.12231	0.00188131	   1.19322	0.00187599	   1.14978	0.00187105	   1.14978	   46.7763	
  0.981852	0.00185158	  0.970685	0.00187673	   1.04169	0.00187166	  0.998077	0.00186666	  0.998077	   46.6664	
  0.830684	0.00184724	  0.819116	0.00187215	  0.890019	0.00186718	  0.846606	0.00186219	  0.846606	   46.5547	
  0.679174	0.00184286	  0.667632	0.00186758	  0.737818	0.00186252	  0.694875	0.00185765	  0.694875	   46.4413	
  0.528037	0.00183846	  0.516204	0.00186296	  0.585541	0.00185771	  0.543261	0.00185304	  0.543261	    46.326	
   0.37688	  0.001834	  0.364751	0.00185818	  0.433119	0.00185282	  0.391583	0.00184833	  0.391583	   46.2083	
  0.225911	0.00182946	  0.213138	 0.0018532	  0.280434	0.00184792	  0.239827	0.00184353	  0.239827	   46.0882	
 0.0742071	 0.0018248	 0.0616741	0.00184808	  0.127806	0.00184303	 0.0878958	0.00183864	 0.0878958	    45.966	
-0.0780453	0.00182002	-0.0901005	0.00184294	-0.0240778	0.00183812	-0.0640745	0.00183369	-0.0640745	   45.8423	
 -0.230422	0.00181513	 -0.241386	0.00183784	  -0.17598	0.00183311	 -0.215929	0.00182869	 -0.215929	   45.7174	
 -0.382363	0.00181018	 -0.392698	0.00183279	 -0.328033	0.00182797	 -0.367698	0.00182364	 -0.367698	   45.5911	
 -0.534039	0.00180518	 -0.545539	0.00182772	 -0.480019	0.00182267	 -0.519866	0.00181852	 -0.519866	   45.4631	
 -0.684924	0.00180014	  -0.69837	0.00182253	  -0.63196	0.00181725	 -0.671752	0.00181331	 -0.671752	   45.3327	
 -0.836246	0.00179506	 -0.851152	0.00181712	 -0.784451	0.00181176	  -0.82395	0.00180798	  -0.82395	   45.1995	
 -0.987076	0.00178993	  -1.00368	0.00181148	 -0.937571	0.00180625	 -0.976109	0.00180255	 -0.976109	   45.0639	
  -1.13853	0.00178472	  -1.15499	0.00180566	  -1.09046	0.00180073	    -1.128	0.00179704	    -1.128	   44.9259	
  -1.29071	0.00177939	  -1.30622	0.00179975	  -1.24273	0.00179516	  -1.27989	0.00179143	  -1.27989	   44.7858	
   -1.4424	0.00177389	  -1.45568	0.00179387	  -1.39502	0.00178951	  -1.43103	0.00178576	  -1.43103	   44.6439	
   -1.5941	0.00176824	  -1.60434	0.00178805	  -1.54711	0.00178374	  -1.58185	0.00178001	  -1.58185	   44.5002	
  -1.74585	 0.0017625	  -1.75336	0.00178226	  -1.69857	0.00177784	  -1.73259	 0.0017742	  -1.73259	   44.3551	
  -1.89755	 0.0017567	  -1.90089	 0.0017764	  -1.85045	0.00177184	  -1.88296	0.00176831	  -1.88296	   44.2078	
  -2.04898	 0.0017509	  -2.05028	0.00177035	  -2.00292	0.00176578	  -2.03406	0.00176234	  -2.03406	   44.0586	
  -2.20099	0.00174509	  -2.19877	0.00176409	  -2.15537	0.00175969	  -2.18505	0.00175629	  -2.18505	   43.9073	
  -2.35255	0.00173925	  -2.35061	0.00175764	  -2.30836	0.00175357	  -2.33717	0.00175015	  -2.33717	   43.7538	
  -2.50386	0.00173331	  -2.50168	0.00175109	  -2.46088	0.00174742	   -2.4888	0.00174394	   -2.4888	   43.5985	
  -2.65478	0.00172721	  -2.65316	0.00174453	  -2.61342	 0.0017412	  -2.64045	0.00173765	  -2.64045	   43.4412	
  -2.80618	0.00172095	   -2.8031	0.00173802	  -2.76578	0.00173486	  -2.79169	0.00173128	  -2.79169	   43.2819	
  -2.95713	0.00171455	   -2.9545	0.00173153	  -2.91818	0.00172837	  -2.94327	0.00172482	  -2.94327	   43.1204	
  -3.10826	0.00170807	  -3.10499	0.00172496	  -3.06994	0.00172174	  -3.09439	0.00171826	  -3.09439	   42.9565	
  -3.25957	0.00170157	  -3.25545	0.00171823	  -3.22198	0.00171501	  -3.24567	 0.0017116	  -3.24567	   42.7901	
  -3.41118	0.00169506	  -3.40535	0.00171127	  -3.37407	0.00170824	  -3.39687	0.00170486	  -3.39687	   42.6214	
  -3.56269	0.00168849	  -3.55582	0.00170411	  -3.52574	0.00170141	  -3.54808	  0.001698	  -3.54808	   42.4501	
  -3.71413	0.00168183	  -3.70555	0.00169685	   -3.6769	0.00169458	  -3.69886	0.00169109	  -3.69886	   42.2772	
   -3.8649	  0.001675	   -3.8552	0.00168959	  -3.82756	0.00168771	  -3.84922	 0.0016841	  -3.84922	   42.1025	
  -4.01554	0.00166804	  -4.00491	0.00168236	   -3.9779	0.00168081	  -3.99945	0.00167707	  -3.99945	   41.9268	
   -4.1661	0.00166099	  -4.15432	0.00167514	  -4.12707	0.00167383	  -4.14916	0.00166999	  -4.14916	   41.7498	
  -4.31705	0.00165392	  -4.30348	0.00166784	  -4.27605	0.00166674	  -4.29886	0.00166283	  -4.29886	   41.5708	
  -4.46758	0.00164684	  -4.45283	0.00166037	  -4.42527	0.00165952	  -4.44856	0.00165557	  -4.44856	   41.3893	
  -4.61752	0.00163969	  -4.60216	 0.0016527	  -4.57419	0.00165213	  -4.59796	0.00164817	  -4.59796	   41.2044	
  -4.76707	0.00163244	  -4.75128	0.00164486	  -4.72364	0.00164462	  -4.74733	0.00164064	  -4.74733	    41.016	
  -4.91639	0.00162501	  -4.89932	0.00163694	  -4.87237	0.00163703	  -4.89603	0.00163299	  -4.89603	   40.8248	
  -5.06566	0.00161742	  -5.04789	0.00162899	  -5.02092	0.00162941	  -5.04482	0.00162527	  -5.04482	   40.6319	
  -5.21434	0.00160974	   -5.1964	0.00162106	  -5.16945	0.00162179	   -5.1934	0.00161753	   -5.1934	   40.4382	
  -5.36228	0.00160202	    -5.345	0.00161311	  -5.31777	0.00161416	  -5.34168	0.00160976	  -5.34168	    40.244	
  -5.51002	0.00159432	  -5.49349	0.00160508	  -5.46604	0.00160643	  -5.48985	0.00160194	  -5.48985	   40.0486	
  -5.65774	0.00158661	  -5.64168	0.00159691	  -5.61373	0.00159856	  -5.63772	0.00159403	  -5.63772	   39.8506	
  -5.80491	0.00157884	  -5.78941	0.00158857	  -5.76206	 0.0015905	  -5.78546	0.00158597	  -5.78546	   39.6492	
  -5.95172	0.00157095	  -5.93653	0.00158008	  -5.90976	0.00158232	  -5.93267	0.00157778	  -5.93267	   39.4446	
  -6.09835	0.00156288	  -6.08323	0.00157151	  -6.05669	0.00157408	  -6.07942	0.00156949	  -6.07942	   39.2373	
  -6.24464	0.00155467	  -6.22935	0.00156291	  -6.20341	0.00156587	   -6.2258	0.00156115	   -6.2258	   39.0287	
  -6.39075	0.00154635	  -6.37512	 0.0015543	  -6.35008	0.00155771	  -6.37199	0.00155279	  -6.37199	   38.8197	
  -6.53687	0.00153801	  -6.52036	0.00154567	  -6.49653	0.00154953	  -6.51792	 0.0015444	  -6.51792	   38.6101	
  -6.68315	0.00152968	  -6.66529	0.00153696	  -6.64292	 0.0015412	  -6.66379	0.00153595	  -6.66379	   38.3987	
   -6.8287	0.00152136	   -6.8094	0.00152811	  -6.78873	0.00153264	  -6.80894	0.00152737	  -6.80894	   38.1843	
  -6.97443	0.00151298	   -6.9536	 0.0015191	   -6.9345	0.00152384	  -6.95418	0.00151864	  -6.95418	    37.966	
  -7.11979	0.00150448	  -7.09806	0.00150996	  -7.08005	0.00151488	   -7.0993	0.00150977	   -7.0993	   37.7443	
  -7.26496	0.00149583	  -7.24187	0.00150076	  -7.22523	0.00150593	  -7.24402	0.00150084	  -7.24402	   37.5209	
  -7.40946	0.00148702	  -7.38493	0.00149157	  -7.37021	0.00149708	   -7.3882	0.00149189	   -7.3882	   37.2972	
  -7.55382	 0.0014781	  -7.52746	0.00148245	  -7.51551	0.00148837	  -7.53226	0.00148297	  -7.53226	   37.0742	
  -7.69823	 0.0014691	  -7.66967	0.00147332	  -7.65956	0.00147968	  -7.67582	0.00147403	  -7.67582	   36.8509	
  -7.84249	0.00146008	  -7.81108	0.00146409	  -7.80365	0.00147086	  -7.81907	0.00146501	  -7.81907	   36.6252	
   -7.9861	0.00145104	   -7.9526	0.00145462	  -7.94691	0.00146178	  -7.96187	0.00145581	  -7.96187	   36.3953	
  -8.12962	0.00144196	  -8.09372	0.00144492	  -8.09061	0.00145242	  -8.10465	0.00144643	  -8.10465	   36.1608	
  -8.27253	 0.0014328	  -8.23498	0.00143501	  -8.23384	0.00144288	  -8.24712	 0.0014369	  -8.24712	   35.9224	
  -8.41506	0.00142355	  -8.37587	0.00142502	  -8.37613	0.00143331	  -8.38902	 0.0014273	  -8.38902	   35.6824	
  -8.55705	0.00141417	   -8.5159	 0.0014151	  -8.51806	0.00142385	  -8.53034	 0.0014177	  -8.53034	   35.4426	
  -8.69839	0.00140468	  -8.65635	 0.0014053	  -8.65949	 0.0014145	  -8.67141	0.00140816	  -8.67141	    35.204	
  -8.83931	0.00139509	  -8.79667	0.00139563	  -8.80098	0.00140518	  -8.81232	0.00139863	  -8.81232	   34.9658	
  -8.98069	0.00138543	  -8.93603	0.00138592	  -8.94202	0.00139573	  -8.95291	0.00138903	  -8.95291	   34.7256	
  -9.12198	0.00137572	  -9.07502	0.00137606	   -9.0828	0.00138604	  -9.09327	0.00137927	  -9.09327	   34.4818	
  -9.26268	0.00136597	   -9.2142	0.00136592	  -9.22388	0.00137609	  -9.23359	0.00136933	  -9.23359	   34.2332	
  -9.40335	0.00135617	  -9.35373	0.00135551	  -9.36437	0.00136599	  -9.37382	0.00135922	  -9.37382	   33.9805	
  -9.54417	0.00134629	  -9.49308	0.00134494	  -9.50382	0.00135586	  -9.51369	0.00134903	  -9.51369	   33.7257	
  -9.68462	 0.0013363	  -9.63141	0.00133438	  -9.64284	0.00134582	  -9.65296	0.00133883	  -9.65296	   33.4708	
  -9.82491	0.00132621	  -9.76934	0.00132395	  -9.78231	0.00133586	  -9.79219	0.00132867	  -9.79219	   33.2168	
  -9.96488	0.00131602	  -9.90709	0.00131366	  -9.92103	0.00132591	    -9.931	0.00131853	    -9.931	   32.9632	
  -10.1047	0.00130578	  -10.0435	 0.0013034	  -10.0592	0.00131582	  -10.0691	0.00130833	  -10.0691	   32.7083	
   -10.244	0.00129551	  -10.1788	0.00129301	  -10.1964	0.00130552	  -10.2064	0.00129801	  -10.2064	   32.4503	
  -10.3828	 0.0012852	  -10.3134	0.00128237	  -10.3329	  0.001295	  -10.3431	0.00128752	  -10.3431	   32.1881	
  -10.5205	0.00127485	  -10.4479	0.00127148	   -10.469	0.00128434	  -10.4791	0.00127689	  -10.4791	   31.9223	
   -10.658	0.00126442	   -10.582	0.00126044	  -10.6048	0.00127367	  -10.6149	0.00126618	  -10.6149	   31.6544	
  -10.7947	0.00125389	  -10.7154	0.00124939	   -10.741	0.00126307	  -10.7504	0.00125545	  -10.7504	   31.3862	
  -10.9304	0.00124327	   -10.849	0.00123844	  -10.8766	0.00125253	  -10.8853	0.00124475	  -10.8853	   31.1187	
  -11.0655	0.00123258	  -10.9822	0.00122759	  -11.0116	0.00124197	  -11.0198	0.00123405	  -11.0198	   30.8512	
  -11.2003	0.00122184	  -11.1144	0.00121675	  -11.1462	0.00123126	  -11.1536	0.00122328	  -11.1536	   30.5821	
  -11.3348	0.00121106	  -11.2468	0.00120578	  -11.2806	0.00122034	  -11.2874	0.00121239	  -11.2874	   30.3098	
  -11.4684	0.00120024	  -11.3786	0.00119461	  -11.4148	0.00120921	  -11.4206	0.00120135	  -11.4206	   30.0338	
  -11.6011	0.00118936	  -11.5107	0.00118324	  -11.5485	0.00119797	  -11.5534	0.00119019	  -11.5534	   29.7548	
  -11.7335	0.00117842	  -11.6422	0.00117177	   -11.681	0.00118674	  -11.6856	0.00117898	  -11.6856	   29.4744	
  -11.8652	 0.0011674	  -11.7732	 0.0011603	   -11.813	 0.0011756	  -11.8171	0.00116777	  -11.8171	   29.1941	
  -11.9964	 0.0011563	  -11.9035	0.00114892	   -11.945	0.00116452	  -11.9483	0.00115658	  -11.9483	   28.9144	
   -12.127	0.00114514	  -12.0336	0.00113758	  -12.0766	 0.0011534	  -12.0791	0.00114537	  -12.0791	   28.6343	
  -12.2573	0.00113392	  -12.1633	0.00112623	  -12.2069	0.00114213	  -12.2092	0.00113409	  -12.2092	   28.3524	
  -12.3869	0.00112267	  -12.2926	0.00111474	  -12.3367	0.00113065	  -12.3387	0.00112269	  -12.3387	   28.0672	
  -12.5159	0.00111139	  -12.4212	0.00110306	  -12.4665	0.00111898	  -12.4679	0.00111114	  -12.4679	   27.7786	
  -12.6441	0.00110006	  -12.5497	 0.0010912	  -12.5956	 0.0011072	  -12.5965	0.00109949	  -12.5965	   27.4872	
   -12.772	0.00108866	  -12.6777	0.00107925	  -12.7245	0.00109543	  -12.7247	0.00108778	  -12.7247	   27.1945	
  -12.8995	 0.0010772	  -12.8053	0.00106731	  -12.8531	0.00108371	  -12.8527	0.00107608	  -12.8527	   26.9019	
  -13.0263	0.00106568	  -12.9326	0.00105545	  -12.9817	0.00107205	  -12.9802	0.00106439	  -12.9802	   26.6099	
  -13.1519	0.00105411	    -13.06	0.00104365	  -13.1098	0.00106037	  -13.1072	0.00105271	  -13.1072	   26.3177	
  -13.2766	0.00104251	  -13.1862	0.00103182	  -13.2374	0.00104853	  -13.2334	0.00104095	  -13.2334	   26.0239	
  -13.4011	0.00103093	  -13.3121	0.00101985	  -13.3643	0.00103649	  -13.3591	0.00102909	  -13.3591	   25.7272	
  -13.5249	0.00101931	  -13.4376	0.00100769	  -13.4911	0.00102426	  -13.4846	0.00101709	  -13.4846	   25.4272	
  -13.6481	0.00100761	  -13.5634	0.000995367	  -13.6169	0.00101196	  -13.6095	0.00100498	  -13.6095	   25.1245	
  -13.7716	0.000995774	  -13.6886	0.000982975	  -13.7418	0.000999708	   -13.734	0.000992819	   -13.734	   24.8205	
  -13.8941	0.000983786	  -13.8131	0.000970616	  -13.8658	0.000987551	  -13.8577	0.000980651	  -13.8577	   24.5163	
  -14.0158	0.00097173	  -13.9373	0.000958335	  -13.9892	0.000975451	  -13.9808	0.000968505	  -13.9808	   24.2126	
  -14.1366	0.000959683	   -14.061	0.000946103	  -14.1114	0.000963306	   -14.103	0.000956364	   -14.103	   23.9091	
  -14.2571	0.000947707	  -14.1843	0.000933829	  -14.2329	0.000951004	  -14.2248	0.00094418	  -14.2248	   23.6045	
   -14.377	0.000935792	  -14.3063	0.000921423	  -14.3542	0.000938502	  -14.3458	0.000931906	  -14.3458	   23.2976	
  -14.4968	0.000923859	   -14.428	0.000908834	   -14.475	0.000925826	  -14.4666	0.000919506	  -14.4666	   22.9877	
  -14.6162	0.000911829	  -14.5495	0.000896097	   -14.595	0.000913081	  -14.5869	0.000907002	  -14.5869	   22.6751	
  -14.7354	0.000899636	  -14.6699	0.000883302	  -14.7143	0.00090038	  -14.7065	0.000894439	  -14.7065	    22.361	
   -14.854	0.000887285	  -14.7903	0.000870535	   -14.833	0.00088777	  -14.8258	0.000881863	  -14.8258	   22.0466	
   -14.972	0.000874842	  -14.9109	0.000857838	  -14.9512	0.000875241	  -14.9447	0.000869307	  -14.9447	   21.7327	
   -15.089	0.00086238	   -15.031	0.000845183	  -15.0685	0.000862677	  -15.0628	0.000856747	  -15.0628	   21.4187	
  -15.2057	0.000849976	    -15.15	0.000832487	  -15.1849	0.000849976	  -15.1802	0.000844147	  -15.1802	   21.1037	
  -15.3217	0.000837633	  -15.2692	0.000819669	   -15.301	0.000837092	  -15.2973	0.000831464	  -15.2973	   20.7866	
   -15.437	0.000825292	  -15.3882	0.00080669	  -15.4164	0.00082406	  -15.4139	0.000818681	  -15.4139	    20.467	
  -15.5512	0.000812878	  -15.5068	0.000793577	  -15.5316	0.000810978	  -15.5299	0.000805811	  -15.5299	   20.1453	
  -15.6647	0.000800337	  -15.6249	0.000780411	  -15.6457	0.000797939	  -15.6451	0.000792896	  -15.6451	   19.8224	
  -15.7774	0.000787657	  -15.7418	0.000767271	  -15.7591	0.000784984	  -15.7594	0.000779971	  -15.7594	   19.4993	
  -15.8895	0.000774884	  -15.8574	0.000754198	  -15.8724	0.000772083	  -15.8731	0.000767055	  -15.8731	   19.1764	
  -16.0004	0.000762083	  -15.9726	0.000741168	  -15.9843	0.000759145	  -15.9858	0.000754132	  -15.9858	   18.8533	
  -16.1107	0.000749312	  -16.0865	0.000728102	  -16.0955	0.000746084	  -16.0976	0.000741166	  -16.0976	   18.5292	
  -16.2206	0.000736591	  -16.1999	0.000714927	  -16.2057	0.000732858	  -16.2087	0.000728125	  -16.2087	   18.2031	
  -16.3301	0.000723875	  -16.3131	0.000701609	  -16.3158	0.000719499	  -16.3197	0.000714994	  -16.3197	   17.8749	
  -16.4388	0.000711073	  -16.4254	0.000688186	  -16.4249	0.000706098	  -16.4297	0.000701786	  -16.4297	   17.5446	
  -16.5476	0.000698123	  -16.5367	0.00067473	   -16.533	0.000692738	  -16.5391	0.00068853	  -16.5391	   17.2133	
  -16.6552	0.000685048	  -16.6469	0.000661305	   -16.641	0.00067946	  -16.6477	0.000675271	  -16.6477	   16.8818	
   -16.762	0.000671935	  -16.7565	0.000647934	  -16.7484	0.000666225	  -16.7556	0.000662031	  -16.7556	   16.5508	
  -16.8682	0.000658864	  -16.8659	0.000634582	   -16.855	0.000652948	   -16.863	0.000648798	   -16.863	     16.22	
  -16.9743	0.000645865	  -16.9742	0.000621191	  -16.9613	0.000639558	  -16.9699	0.000635538	  -16.9699	   15.8885	
  -17.0797	0.000632905	  -17.0815	0.000607709	  -17.0676	0.000626025	  -17.0763	0.000622213	  -17.0763	   15.5553	
  -17.1847	0.00061989	  -17.1884	0.000594118	  -17.1732	0.000612388	  -17.1821	0.000608798	  -17.1821	     15.22	
  -17.2887	0.000606734	  -17.2945	0.000580449	  -17.2784	0.000598723	  -17.2872	0.000595302	  -17.2872	   14.8825	
  -17.3916	0.000593401	  -17.3998	0.000566756	  -17.3829	0.000585099	  -17.3914	0.000581752	  -17.3914	   14.5438	
  -17.4936	0.000579947	  -17.5043	0.000553092	  -17.4866	0.00057154	  -17.4948	0.000568193	  -17.4948	   14.2048	
  -17.5954	0.000566479	  -17.6081	0.000539476	  -17.5901	0.000558015	  -17.5978	0.000554657	  -17.5978	   13.8664	
  -17.6962	0.000553089	  -17.7118	0.00052589	  -17.6931	0.000544462	  -17.7004	0.000541147	  -17.7004	   13.5287	
  -17.7973	0.000539807	  -17.8145	0.000512281	  -17.7952	0.000530821	  -17.8023	0.000527637	  -17.8023	   13.1909	
  -17.8974	0.00052658	  -17.9168	0.000498623	  -17.8963	0.000517069	  -17.9035	0.000514091	  -17.9035	   12.8523	
  -17.9967	0.000513316	  -18.0184	 0.0004849	  -17.9972	0.000503237	  -18.0041	0.000500484	  -18.0041	   12.5121	
  -18.0952	0.000499938	  -18.1197	0.00047112	  -18.0976	0.000489386	  -18.1042	0.000486815	  -18.1042	   12.1704	
   -18.193	0.00048642	  -18.2201	0.000457255	   -18.197	0.000475575	  -18.2034	0.000473083	  -18.2034	   11.8271	
  -18.2901	0.000472805	  -18.3195	0.000443315	  -18.2956	0.000461828	  -18.3018	0.000459316	  -18.3018	   11.4829	
  -18.3869	0.00045917	  -18.4177	0.000429319	  -18.3935	0.00044812	  -18.3994	0.000445536	  -18.3994	   11.1384	
  -18.4828	0.000445599	  -18.5155	0.000415307	  -18.4909	0.000434392	  -18.4964	0.000431766	  -18.4964	   10.7942	
  -18.5781	0.000432117	  -18.6121	0.000401347	  -18.5877	0.000420586	  -18.5927	0.000418017	  -18.5927	   10.4504	
  -18.6726	0.000418697	  -18.7082	0.000387452	  -18.6842	0.000406689	  -18.6883	0.000404279	  -18.6883	    10.107	
  -18.7669	0.000405262	  -18.8036	0.000373606	    -18.78	0.000392724	  -18.7835	0.000390531	  -18.7835	   9.76327	
  -18.8605	0.000391717	  -18.8984	0.000359746	  -18.8749	0.000378752	   -18.878	0.000376738	   -18.878	   9.41846	
  -18.9538	0.000378052	  -18.9923	0.000345805	   -18.969	0.000364822	  -18.9717	0.000362893	  -18.9717	   9.07232	
  -19.0461	0.000364303	  -19.0852	0.000331768	   -19.062	0.00035095	  -19.0644	0.000349007	  -19.0644	   8.72518	
  -19.1374	0.000350571	  -19.1773	0.000317646	  -19.1546	0.000337112	  -19.1565	0.00033511	  -19.1565	   8.37774	
  -19.2283	0.000336921	  -19.2696	0.000303502	  -19.2462	0.00032326	   -19.248	0.000321228	   -19.248	   8.03069	
  -19.3188	0.000323366	  -19.3602	0.000289399	   -19.337	0.00030935	  -19.3386	0.000307372	  -19.3386	   7.68429	
  -19.4081	0.000309882	  -19.4496	0.000275364	  -19.4266	0.000295373	  -19.4281	0.00029354	  -19.4281	   7.33849	
  -19.4969	0.000296358	   -19.538	0.000261387	  -19.5159	0.000281364	  -19.5169	0.000279703	  -19.5169	   6.99257	
  -19.5852	0.000282718	  -19.6255	0.000247407	  -19.6042	0.000267374	   -19.605	0.000265833	   -19.605	   6.64583	
  -19.6736	0.000268924	  -19.7118	0.000233375	  -19.6916	0.000253427	  -19.6924	0.000251909	  -19.6924	   6.29772	
  -19.7609	0.000255035	  -19.7974	0.000219267	   -19.778	0.000239506	  -19.7788	0.000237936	  -19.7788	   5.94839	
  -19.8476	0.000241139	  -19.8821	0.000205102	  -19.8643	0.000225572	  -19.8647	0.000223938	  -19.8647	   5.59844	
  -19.9326	0.000227327	   -19.966	0.000190935	   -19.949	0.000211602	  -19.9492	0.000209955	  -19.9492	   5.24887	
  -20.0168	0.000213654	  -20.0495	0.000176813	  -20.0326	0.000197586	   -20.033	0.000196018	   -20.033	   4.90045	
  -20.1004	0.000200067	   -20.132	0.000162756	  -20.1152	0.000183532	  -20.1159	0.000182118	  -20.1159	   4.55295	
  -20.1824	0.000186489	  -20.2133	0.000148745	  -20.1973	0.000169495	  -20.1976	0.000168243	  -20.1976	   4.20607	
  -20.2633	0.000172811	  -20.2935	0.000134736	  -20.2782	0.000155504	  -20.2783	0.00015435	  -20.2783	   3.85876	
   -20.344	0.000159004	  -20.3725	0.000120691	  -20.3585	0.000141613	  -20.3583	0.000140436	  -20.3583	    3.5109	
  -20.4241	0.000145099	  -20.4511	0.000106587	  -20.4383	0.00012776	  -20.4378	0.000126482	  -20.4378	   3.16205	
  -20.5038	0.000131178	  -20.5283	9.24392e-05	  -20.5166	0.000113882	  -20.5162	 0.0001125	  -20.5162	   2.81249	
  -20.5825	0.000117334	  -20.6047	7.82922e-05	   -20.594	9.9883e-05	  -20.5937	9.85029e-05	  -20.5937	   2.46257	
   -20.661	0.000103592	  -20.6805	6.41917e-05	  -20.6706	8.57345e-05	  -20.6707	8.4506e-05	  -20.6707	   2.11265	
  -20.7387	8.99349e-05	  -20.7556	5.01646e-05	  -20.7465	7.15108e-05	   -20.747	7.05368e-05	   -20.747	   1.76342	
  -20.8154	7.62904e-05	  -20.8304	3.61949e-05	  -20.8219	5.73168e-05	  -20.8226	5.66007e-05	  -20.8226	   1.41502	
  -20.8906	6.25765e-05	  -20.9044	2.22415e-05	  -20.8965	4.32709e-05	  -20.8972	4.26963e-05	  -20.8972	   1.06741	
  -20.9651	4.87647e-05	  -20.9779	8.26315e-06	  -20.9702	2.94108e-05	   -20.971	2.88129e-05	   -20.971	  0.720322	
  -21.0383	3.48758e-05	   -21.051	-5.76337e-06	  -21.0434	1.55773e-05	  -21.0442	1.48966e-05	  -21.0442	  0.372414	
  -21.1109	2.09841e-05	  -21.1237	-1.98191e-05	  -21.1159	1.75648e-06	  -21.1168	9.7383e-07	  -21.1168	 0.0243457	
  -21.1826	7.16815e-06	  -21.1963	-3.38623e-05	  -21.1871	-1.21506e-05	  -21.1887	-1.29482e-05	  -21.1887	 -0.323706	
  -21.2535	-6.54386e-06	  -21.2677	-4.78567e-05	   -21.258	-2.60868e-05	  -21.2597	-2.68291e-05	  -21.2597	 -0.670728	
  -21.3235	-2.01718e-05	  -21.3385	-6.17845e-05	  -21.3283	-3.99698e-05	  -21.3301	-4.06421e-05	  -21.3301	  -1.01605	
  -21.3931	-3.37832e-05	  -21.4082	-7.56658e-05	  -21.3978	-5.37863e-05	  -21.3997	-5.44117e-05	  -21.3997	  -1.36029	
  -21.4613	-4.74473e-05	  -21.4765	-8.95325e-05	  -21.4663	-6.75175e-05	   -21.468	-6.81658e-05	   -21.468	  -1.70414	
  -21.5298	-6.11874e-05	  -21.5444	-0.000103414	   -21.534	-8.12838e-05	  -21.5361	-8.19617e-05	  -21.5361	  -2.04904	
  -21.5976	-7.49813e-05	  -21.6113	-0.000117318	  -21.6004	-9.51129e-05	  -21.6031	-9.5804e-05	  -21.6031	   -2.3951	
  -21.6649	-8.87665e-05	  -21.6771	-0.000131221	  -21.6654	-0.000109011	  -21.6691	-0.000109666	  -21.6691	  -2.74166	
  -21.7307	-0.00010249	  -21.7427	-0.000145095	  -21.7294	-0.000122928	  -21.7343	-0.000123504	  -21.7343	  -3.08761	
  -21.7963	-0.000116134	  -21.8071	-0.000158915	  -21.7925	-0.00013676	  -21.7986	-0.000137269	  -21.7986	  -3.43174	
  -21.8605	-0.000129714	  -21.8709	-0.000172673	   -21.855	-0.000150474	  -21.8621	-0.000150953	  -21.8621	  -3.77384	
  -21.9242	-0.000143281	  -21.9339	-0.000186391	  -21.9165	-0.000164079	  -21.9249	-0.000164584	  -21.9249	  -4.11459	
  -21.9862	-0.000156892	  -21.9956	-0.000200102	  -21.9772	-0.000177628	  -21.9864	-0.000178207	  -21.9864	  -4.45517	
  -22.0481	-0.000170559	  -22.0563	-0.00021382	  -22.0373	-0.000191213	  -22.0472	-0.000191864	  -22.0472	  -4.79659	
   -22.109	-0.000184244	  -22.1161	-0.000227534	  -22.0963	-0.000204855	  -22.1071	-0.000205544	  -22.1071	   -5.1386	
  -22.1694	-0.000197869	  -22.1749	-0.000241228	  -22.1547	-0.000218546	  -22.1664	-0.000219214	  -22.1664	  -5.48036	
  -22.2286	-0.000211381	  -22.2337	-0.000254895	  -22.2123	-0.000232239	  -22.2249	-0.000232839	  -22.2249	  -5.82096	
  -22.2874	-0.000224792	  -22.2908	-0.000268543	  -22.2684	-0.000245866	  -22.2822	-0.0002464	  -22.2822	  -6.16001	
  -22.3449	-0.000238125	  -22.3468	-0.00028217	  -22.3243	-0.000259402	  -22.3387	-0.000259899	  -22.3387	  -6.49748	
  -22.4014	-0.000251488	   -22.402	-0.000295776	  -22.3797	-0.00027284	  -22.3944	-0.000273368	  -22.3944	   -6.8342	
  -22.4574	-0.000264916	  -22.4566	-0.000309354	  -22.4338	-0.000286221	  -22.4493	-0.00028683	  -22.4493	  -7.17076	
  -22.5125	-0.000278438	  -22.5101	-0.000322903	  -22.4872	-0.000299606	  -22.5033	-0.000300316	  -22.5033	  -7.50789	
  -22.5662	-0.000292032	  -22.5628	-0.000336413	  -22.5402	-0.00031303	  -22.5564	-0.000313825	  -22.5564	  -7.84562	
  -22.6188	-0.000305614	  -22.6148	-0.000349879	  -22.5925	-0.000326502	  -22.6087	-0.000327332	  -22.6087	  -8.18329	
  -22.6707	-0.000319108	  -22.6664	-0.000363292	  -22.6434	-0.000339979	  -22.6602	-0.000340793	  -22.6602	  -8.51983	
   -22.722	-0.000332449	  -22.7171	-0.00037666	  -22.6934	-0.00035339	  -22.7109	-0.000354166	  -22.7109	  -8.85416	
  -22.7725	-0.000345641	  -22.7671	-0.000389998	  -22.7428	-0.000366693	  -22.7608	-0.000367444	  -22.7608	   -9.1861	
  -22.8217	-0.000358756	  -22.8167	-0.000403322	  -22.7922	-0.000379879	  -22.8102	-0.000380652	  -22.8102	   -9.5163	
  -22.8699	-0.000371895	  -22.8653	-0.000416646	  -22.8404	-0.000392996	  -22.8585	-0.000393845	  -22.8585	  -9.84614	
  -22.9171	-0.000385128	  -22.9129	-0.000429953	  -22.8872	-0.000406108	  -22.9057	-0.000407063	  -22.9057	  -10.1766	
   -22.963	-0.000398463	  -22.9593	-0.000443228	  -22.9333	-0.000419262	  -22.9519	-0.000420318	  -22.9519	  -10.5079	
   -23.008	-0.000411824	  -23.0042	-0.000456455	  -22.9787	-0.000432461	   -22.997	-0.00043358	   -22.997	  -10.8395	
  -23.0518	-0.000425114	  -23.0489	-0.000469628	  -23.0225	-0.000445648	  -23.0411	-0.000446797	  -23.0411	  -11.1699	
  -23.0952	-0.00043825	  -23.0923	-0.000482753	   -23.065	-0.000458766	  -23.0841	-0.000459923	  -23.0841	  -11.4981	
  -23.1367	-0.00045122	  -23.1352	-0.000495853	  -23.1066	-0.000471767	  -23.1262	-0.000472946	  -23.1262	  -11.8237	
  -23.1778	-0.000464091	  -23.1767	-0.000508963	  -23.1478	-0.000484654	  -23.1674	-0.000485902	  -23.1674	  -12.1476	
  -23.2183	-0.000476961	  -23.2172	-0.000522067	  -23.1885	-0.000497471	   -23.208	-0.000498833	   -23.208	  -12.4708	
  -23.2581	-0.000489904	  -23.2568	-0.000535099	  -23.2287	-0.000510272	  -23.2479	-0.000511758	  -23.2479	   -12.794	
  -23.2968	-0.000502928	  -23.2954	-0.000548022	  -23.2685	-0.000523094	  -23.2869	-0.000524681	  -23.2869	   -13.117	
  -23.3351	-0.000515963	  -23.3336	-0.000560837	  -23.3072	-0.000535938	  -23.3253	-0.000537579	  -23.3253	  -13.4395	
  -23.3717	-0.000528912	  -23.3717	-0.000573567	  -23.3451	-0.000548765	  -23.3629	-0.000550414	  -23.3629	  -13.7604	
  -23.4075	-0.000541706	  -23.4089	-0.000586296	  -23.3821	-0.000561535	  -23.3995	-0.000563179	  -23.3995	  -14.0795	
  -23.4423	-0.000554351	   -23.445	-0.000599076	  -23.4185	-0.000574214	  -23.4353	-0.00057588	  -23.4353	   -14.397	
  -23.4765	-0.000566904	  -23.4801	-0.00061191	  -23.4535	-0.000586801	    -23.47	-0.000588538	    -23.47	  -14.7135	
  -23.5096	-0.000579489	   -23.514	-0.000624757	  -23.4877	-0.000599325	  -23.5038	-0.000601191	  -23.5038	  -15.0298	
  -23.5415	-0.000592144	  -23.5469	-0.000637457	  -23.5216	-0.000611826	  -23.5367	-0.000613809	  -23.5367	  -15.3452	
  -23.5724	-0.000604854	  -23.5787	-0.000649991	  -23.5549	-0.000624333	  -23.5687	-0.000626393	  -23.5687	  -15.6598	
  -23.6025	-0.000617525	  -23.6099	-0.000662337	  -23.5874	-0.000636849	  -23.5999	-0.000638904	  -23.5999	  -15.9726	
  -23.6317	-0.000630055	  -23.6403	-0.000674648	  -23.6185	-0.000649344	  -23.6302	-0.000651349	  -23.6302	  -16.2837	
  -23.6597	-0.000642412	   -23.668	-0.000687107	  -23.6483	-0.000661781	  -23.6587	-0.000663766	  -23.6587	  -16.5942	
  -23.6862	-0.000654639	  -23.6946	-0.000699762	  -23.6775	-0.000674127	  -23.6861	-0.000676176	  -23.6861	  -16.9044	
  -23.7119	-0.000666836	   -23.719	-0.000712551	  -23.7056	-0.000686381	  -23.7122	-0.000688589	  -23.7122	  -17.2147	
  -23.7363	-0.0006791	  -23.7424	-0.000725258	  -23.7327	-0.000698575	  -23.7372	-0.000700978	  -23.7372	  -17.5244	
  -23.7599	-0.000691453	  -23.7637	-0.000737683	  -23.7581	-0.000710746	  -23.7606	-0.000713294	  -23.7606	  -17.8324	
  -23.7827	-0.000703841	  -23.7862	-0.000749742	  -23.7832	-0.000722922	   -23.784	-0.000725502	   -23.784	  -18.1375	
  -23.8045	-0.000716162	  -23.8075	-0.000761536	  -23.8079	-0.000735096	  -23.8066	-0.000737598	  -23.8066	  -18.4399	
  -23.8255	-0.00072831	  -23.8311	-0.000773288	  -23.8315	-0.000747237	  -23.8294	-0.000749612	  -23.8294	  -18.7403	
   -23.846	-0.000740285	  -23.8544	-0.000785242	   -23.854	-0.000759306	  -23.8515	-0.000761611	  -23.8515	  -19.0403	
  -23.8656	-0.000752121	  -23.8775	-0.000797469	  -23.8751	-0.000771283	  -23.8727	-0.000773624	  -23.8727	  -19.3406	
  -23.8836	-0.000763933	  -23.8992	-0.000809882	  -23.8955	-0.000783169	  -23.8928	-0.000785661	  -23.8928	  -19.6415	
  -23.9008	-0.000775819	  -23.9191	-0.000822241	  -23.9151	-0.000794996	  -23.9117	-0.000797685	  -23.9117	  -19.9421	
  -23.9175	-0.000787789	  -23.9369	-0.00083432	  -23.9341	-0.000806797	  -23.9295	-0.000809635	  -23.9295	  -20.2409	
  -23.9337	-0.000799799	  -23.9527	-0.000846051	  -23.9519	-0.000818595	  -23.9461	-0.000821482	  -23.9461	   -20.537	
  -23.9497	-0.000811712	  -23.9674	-0.000857519	  -23.9694	-0.000830384	  -23.9622	-0.000833205	  -23.9622	  -20.8301	
  -23.9648	-0.000823441	   -23.982	-0.000868952	  -23.9851	-0.000842131	  -23.9773	-0.000844842	  -23.9773	   -21.121	
  -23.9791	-0.000834974	  -23.9951	-0.000880546	  -23.9992	-0.000853805	  -23.9911	-0.000856442	  -23.9911	   -21.411	
  -23.9932	-0.000846378	  -24.0078	-0.000892372	  -24.0127	-0.000865386	  -24.0045	-0.000868045	  -24.0045	  -21.7011	
  -24.0057	-0.000857779	  -24.0194	-0.000904347	  -24.0253	-0.000876883	  -24.0168	-0.00087967	  -24.0168	  -21.9917	
  -24.0177	-0.000869252	    -24.03	-0.000916255	  -24.0363	-0.000888328	   -24.028	-0.000891278	   -24.028	   -22.282	
   -24.029	-0.000880804	  -24.0395	-0.000927916	  -24.0469	-0.000899755	  -24.0385	-0.000902825	  -24.0385	  -22.5706	
  -24.0398	-0.00089236	  -24.0475	-0.000939258	  -24.0564	-0.000911181	  -24.0479	-0.000914266	  -24.0479	  -22.8567	
  -24.0498	-0.000903798	  -24.0546	-0.000950374	  -24.0652	-0.000922596	  -24.0565	-0.000925589	  -24.0565	  -23.1397	
  -24.0584	-0.000915049	  -24.0609	-0.000961459	   -24.073	-0.000933963	  -24.0641	-0.000936824	  -24.0641	  -23.4206	
   -24.066	-0.000926109	  -24.0658	-0.000972682	  -24.0797	-0.000945251	  -24.0705	-0.000948014	  -24.0705	  -23.7003	
  -24.0727	-0.000937053	  -24.0701	-0.000984102	  -24.0863	-0.000956439	  -24.0764	-0.000959198	  -24.0764	  -23.9799	
  -24.0788	-0.000948041	  -24.0741	-0.000995623	  -24.0923	-0.000967543	  -24.0817	-0.000970403	  -24.0817	  -24.2601	
   -24.084	-0.000959084	  -24.0771	-0.00100707	  -24.0967	-0.000978593	   -24.086	-0.000981581	   -24.086	  -24.5395	
  -24.0885	-0.000970152	  -24.0793	-0.00101827	     -24.1	-0.00098965	  -24.0893	-0.000992692	  -24.0893	  -24.8173	
  -24.0918	-0.000981133	  -24.0807	-0.00102919	  -24.1019	-0.00100069	  -24.0915	-0.00100367	  -24.0915	  -25.0918	
  -24.0938	-0.000991958	   -24.081	-0.00103992	  -24.1036	-0.00101172	  -24.0928	-0.00101453	  -24.0928	  -25.3633	
  -24.0949	-0.00100262	  -24.0811	-0.00105065	  -24.1041	-0.00102267	  -24.0933	-0.00102531	  -24.0933	  -25.6328	
  -24.0954	-0.00101315	  -24.0801	-0.00106153	  -24.1034	-0.0010335	   -24.093	-0.00103606	   -24.093	  -25.9015	
  -24.0952	-0.00102369	  -24.0783	-0.00107253	  -24.1016	-0.00104419	  -24.0917	-0.0010468	  -24.0917	    -26.17	
  -24.0936	-0.00103428	  -24.0756	-0.00108353	  -24.0993	-0.00105478	  -24.0895	-0.00105753	  -24.0895	  -26.4382	
  -24.0907	-0.00104495	  -24.0726	-0.00109434	  -24.0953	-0.00106535	  -24.0862	-0.00106821	  -24.0862	  -26.7053	
  -24.0873	-0.00105562	  -24.0693	-0.00110485	  -24.0903	-0.00107596	  -24.0823	-0.00107881	  -24.0823	  -26.9703	
  -24.0825	-0.00106617	  -24.0646	-0.00111513	  -24.0844	-0.00108663	  -24.0772	-0.00108931	  -24.0772	  -27.2328	
  -24.0757	-0.00107652	  -24.0588	-0.00112535	  -24.0779	-0.00109731	  -24.0708	-0.00109973	  -24.0708	  -27.4931	
  -24.0684	-0.00108666	  -24.0522	-0.0011357	  -24.0702	-0.0011079	  -24.0636	-0.00111009	  -24.0636	  -27.7522	
  -24.0604	-0.00109668	   -24.044	-0.00114625	  -24.0616	-0.00111835	  -24.0553	-0.00112043	  -24.0553	  -28.0107	
  -24.0515	-0.0011067	  -24.0346	-0.00115691	  -24.0517	-0.00112862	  -24.0459	-0.00113075	  -24.0459	  -28.2687	
  -24.0417	-0.00111681	  -24.0242	-0.00116752	  -24.0414	-0.00113878	  -24.0357	-0.00114104	  -24.0357	  -28.5259	
  -24.0305	 -0.001127	  -24.0129	-0.00117787	  -24.0304	-0.00114892	  -24.0246	-0.00115126	  -24.0246	  -28.7816	
  -24.0177	-0.00113718	  -24.0008	-0.00118793	  -24.0188	-0.00115911	  -24.0124	-0.00116141	  -24.0124	  -29.0351	
  -24.0038	-0.00114724	   -23.987	-0.00119776	   -24.006	-0.00116936	  -23.9989	-0.00117146	  -23.9989	  -29.2864	
  -23.9889	-0.00115712	  -23.9724	-0.00120753	  -23.9922	-0.00117962	  -23.9845	-0.00118142	  -23.9845	  -29.5356	
  -23.9733	-0.0011668	  -23.9571	-0.00121742	  -23.9765	-0.00118979	   -23.969	-0.00119134	   -23.969	  -29.7834	
  -23.9569	-0.00117638	  -23.9406	-0.00122746	  -23.9601	-0.00119981	  -23.9526	-0.00120122	  -23.9526	  -30.0304	
  -23.9397	-0.00118596	  -23.9233	-0.00123761	  -23.9428	-0.00120966	  -23.9353	-0.00121108	  -23.9353	   -30.277	
   -23.921	-0.00119563	  -23.9054	-0.00124771	  -23.9248	-0.0012194	  -23.9171	-0.00122091	  -23.9171	  -30.5228	
  -23.9011	-0.00120537	  -23.8863	-0.0012576	  -23.9054	-0.00122912	  -23.8976	-0.00123069	  -23.8976	  -30.7673	
  -23.8804	-0.00121509	  -23.8658	-0.00126724	  -23.8849	-0.00123886	   -23.877	-0.0012404	   -23.877	  -31.0099	
  -23.8591	-0.00122469	  -23.8445	-0.0012767	  -23.8638	-0.00124866	  -23.8558	-0.00125001	  -23.8558	  -31.2504	
  -23.8364	-0.00123409	  -23.8221	-0.00128612	  -23.8419	-0.00125844	  -23.8335	-0.00125955	  -23.8335	  -31.4888	
  -23.8127	-0.00124333	   -23.799	-0.00129563	  -23.8189	-0.00126814	  -23.8102	-0.00126903	  -23.8102	  -31.7258	
  -23.7885	-0.00125248	  -23.7744	-0.00130523	  -23.7948	-0.00127768	  -23.7859	-0.00127846	  -23.7859	  -31.9616	
   -23.763	-0.00126164	  -23.7486	-0.00131486	    -23.77	-0.00128707	  -23.7605	-0.00128786	  -23.7605	  -32.1964	
  -23.7361	-0.00127087	  -23.7226	-0.0013244	  -23.7439	-0.00129635	  -23.7342	-0.00129721	  -23.7342	  -32.4302	
  -23.7079	-0.00128016	  -23.6957	-0.00133378	  -23.7166	-0.00130559	  -23.7067	-0.00130651	  -23.7067	  -32.6628	
   -23.679	-0.00128942	  -23.6681	-0.00134298	  -23.6884	-0.00131487	  -23.6785	-0.00131576	  -23.6785	  -32.8939	
  -23.6492	-0.00129856	  -23.6392	-0.00135207	  -23.6597	-0.00132413	  -23.6494	-0.00132492	  -23.6494	   -33.123	
  -23.6184	-0.00130752	  -23.6094	-0.00136112	  -23.6301	-0.00133334	  -23.6193	 -0.001334	  -23.6193	  -33.3499	
  -23.5867	-0.00131635	  -23.5784	-0.00137023	  -23.5999	-0.0013425	  -23.5883	-0.00134303	  -23.5883	  -33.5756	
  -23.5544	-0.00132509	  -23.5461	-0.00137939	  -23.5689	-0.00135158	  -23.5565	-0.00135202	  -23.5565	  -33.8005	
  -23.5217	-0.00133385	  -23.5125	-0.00138853	  -23.5365	-0.00136062	  -23.5235	 -0.001361	  -23.5235	   -34.025	
  -23.4882	-0.00134265	  -23.4783	-0.00139756	  -23.5028	-0.00136964	  -23.4898	-0.00136995	  -23.4898	  -34.2487	
  -23.4539	-0.00135148	  -23.4438	-0.0014064	  -23.4665	-0.00137861	  -23.4547	-0.00137883	  -23.4547	  -34.4708	
   -23.419	-0.00136022	  -23.4082	-0.00141507	  -23.4293	-0.00138751	  -23.4188	-0.0013876	  -23.4188	    -34.69	
  -23.3826	-0.00136882	  -23.3715	-0.00142365	  -23.3895	-0.00139626	  -23.3812	-0.00139624	  -23.3812	  -34.9061	
  -23.3454	-0.00137728	  -23.3335	-0.00143222	  -23.3515	-0.00140487	  -23.3435	-0.00140479	  -23.3435	  -35.1198	
  -23.3071	-0.00138569	   -23.295	-0.00144086	  -23.3118	-0.00141337	  -23.3047	-0.0014133	  -23.3047	  -35.3326	
  -23.2684	-0.0013941	  -23.2551	-0.00144951	  -23.2742	-0.00142183	  -23.2659	-0.00142181	  -23.2659	  -35.5453	
  -23.2291	-0.00140255	  -23.2146	-0.00145813	  -23.2359	-0.00143034	  -23.2265	-0.00143034	  -23.2265	  -35.7584	
  -23.1884	-0.00141104	  -23.1734	-0.0014666	  -23.1978	-0.00143888	  -23.1865	-0.00143884	  -23.1865	  -35.9709	
  -23.1461	-0.00141947	  -23.1317	-0.00147488	  -23.1575	-0.00144741	  -23.1451	-0.00144726	  -23.1451	  -36.1814	
  -23.1026	-0.00142777	  -23.0894	-0.00148302	  -23.1162	-0.00145585	  -23.1028	-0.00145555	  -23.1028	  -36.3887	
  -23.0578	-0.00143588	  -23.0459	-0.00149107	  -23.0734	-0.0014641	   -23.059	-0.00146368	   -23.059	   -36.592	
   -23.012	-0.00144382	  -23.0013	-0.00149913	  -23.0296	-0.00147214	  -23.0143	-0.0014717	  -23.0143	  -36.7925	
  -22.9657	-0.0014517	  -22.9563	-0.00150724	  -22.9845	-0.00148002	  -22.9689	-0.00147965	  -22.9689	  -36.9913	
  -22.9186	-0.00145961	  -22.9104	-0.00151536	  -22.9393	-0.00148789	  -22.9228	-0.00148762	  -22.9228	  -37.1905	
    -22.87	-0.00146758	  -22.8635	-0.00152343	  -22.8933	-0.00149592	  -22.8756	-0.00149564	  -22.8756	  -37.3911	
  -22.8204	-0.0014756	  -22.8155	-0.00153135	  -22.8473	-0.00150412	  -22.8277	-0.00150369	  -22.8277	  -37.5922	
  -22.7697	-0.00148356	  -22.7666	-0.0015391	     -22.8	-0.00151239	  -22.7788	-0.00151168	  -22.7788	   -37.792	
  -22.7188	-0.0014914	  -22.7175	-0.00154671	  -22.7516	-0.00152049	  -22.7293	-0.00151953	  -22.7293	  -37.9883	
  -22.6669	-0.00149906	  -22.6673	-0.00155426	  -22.7018	-0.0015283	  -22.6787	-0.00152721	  -22.6787	  -38.1801	
  -22.6146	-0.00150657	  -22.6163	-0.00156183	   -22.651	-0.00153574	  -22.6273	-0.00153471	  -22.6273	  -38.3678	
  -22.5612	-0.00151399	  -22.5644	-0.00156944	  -22.5991	-0.00154295	  -22.5749	-0.00154213	  -22.5749	  -38.5532	
  -22.5072	-0.0015214	  -22.5112	-0.00157706	  -22.5461	-0.00155012	  -22.5215	-0.00154953	  -22.5215	  -38.7382	
  -22.4518	-0.00152884	   -22.457	-0.00158461	  -22.4926	-0.00155743	  -22.4671	-0.00155696	  -22.4671	  -38.9241	
  -22.3948	-0.00153631	  -22.4021	-0.00159203	  -22.4384	-0.00156497	  -22.4118	-0.00156443	  -22.4118	  -39.1108	
  -22.3371	-0.00154372	  -22.3461	-0.00159928	  -22.3831	-0.00157262	  -22.3554	-0.00157188	  -22.3554	  -39.2969	
  -22.2786	-0.00155103	  -22.2889	-0.00160641	  -22.3268	-0.0015802	  -22.2981	-0.00157921	  -22.2981	  -39.4803	
  -22.2194	-0.00155817	  -22.2307	-0.00161349	  -22.2693	-0.00158751	  -22.2398	-0.00158639	  -22.2398	  -39.6597	
  -22.1592	-0.00156517	  -22.1717	-0.00162057	   -22.211	-0.00159437	  -22.1806	-0.00159337	  -22.1806	  -39.8343	
  -22.0978	-0.00157209	  -22.1127	-0.00162769	  -22.1517	-0.0016009	  -22.1208	-0.00160023	  -22.1208	  -40.0057	
  -22.0362	-0.00157901	  -22.0522	-0.0016348	  -22.0912	-0.00160734	  -22.0599	-0.00160705	  -22.0599	  -40.1762	
  -21.9739	-0.00158597	  -21.9906	-0.00164185	  -22.0297	-0.00161401	  -21.9981	-0.00161394	  -21.9981	  -40.3485	
  -21.9105	-0.00159295	  -21.9272	-0.00164877	  -21.9679	-0.00162106	  -21.9352	-0.00162093	  -21.9352	  -40.5232	
  -21.8463	-0.00159989	  -21.8631	-0.00165555	   -21.905	-0.00162839	  -21.8715	-0.00162794	  -21.8715	  -40.6986	
  -21.7817	-0.00160672	  -21.7975	-0.00166222	  -21.8396	-0.00163573	  -21.8062	-0.00163489	  -21.8062	  -40.8722	
  -21.7162	-0.00161339	   -21.731	-0.00166883	  -21.7701	-0.00164272	  -21.7391	-0.00164165	  -21.7391	  -41.0412	
  -21.6497	-0.0016199	  -21.6635	-0.00167545	  -21.7016	-0.00164919	  -21.6716	-0.00164818	  -21.6716	  -41.2045	
  -21.5831	-0.00162633	  -21.5955	-0.00168208	  -21.6304	-0.0016552	   -21.603	-0.00165454	   -21.603	  -41.3634	
  -21.5161	-0.00163274	  -21.5262	-0.0016887	  -21.5629	-0.00166106	  -21.5351	-0.00166084	  -21.5351	  -41.5209	
   -21.448	-0.00163922	  -21.4561	-0.00169525	  -21.4932	-0.00166712	  -21.4658	-0.0016672	  -21.4658	    -41.68	
  -21.3795	-0.00164573	  -21.3858	-0.00170168	  -21.4258	-0.00167358	  -21.3971	-0.00167366	  -21.3971	  -41.8415	
  -21.3096	-0.00165219	  -21.3153	-0.00170796	   -21.357	-0.00168035	  -21.3273	-0.00168017	  -21.3273	  -42.0042	
  -21.2392	-0.00165852	  -21.2438	-0.00171414	  -21.2875	-0.00168714	  -21.2568	-0.0016866	  -21.2568	  -42.1649	
   -21.168	-0.00166468	  -21.1709	-0.00172027	  -21.2159	-0.00169361	  -21.1849	-0.00169285	  -21.1849	  -42.3214	
   -21.096	-0.00167073	   -21.097	-0.0017264	  -21.1438	-0.00169962	  -21.1122	-0.00169892	  -21.1122	   -42.473	
  -21.0234	-0.00167675	  -21.0229	-0.00173256	  -21.0703	-0.00170525	  -21.0389	-0.00170485	  -21.0389	  -42.6213	
  -20.9497	-0.00168282	  -20.9477	-0.00173869	  -20.9951	-0.00171078	  -20.9642	-0.00171077	  -20.9642	  -42.7692	
  -20.8751	-0.00168894	  -20.8723	-0.00174476	  -20.9188	-0.00171648	  -20.8887	-0.00171672	  -20.8887	  -42.9181	
  -20.7993	-0.00169503	  -20.7965	-0.0017507	  -20.8419	-0.00172248	  -20.8126	-0.00172274	  -20.8126	  -43.0684	
  -20.7227	-0.00170101	  -20.7203	-0.00175651	  -20.7638	-0.0017287	  -20.7356	-0.00172874	  -20.7356	  -43.2185	
  -20.6457	-0.00170684	  -20.6427	-0.0017622	  -20.6856	-0.00173488	   -20.658	-0.00173464	   -20.658	   -43.366	
  -20.5675	-0.00171252	   -20.564	-0.00176782	  -20.6065	-0.0017408	  -20.5793	-0.00174038	  -20.5793	  -43.5095	
  -20.4881	-0.0017181	  -20.4853	-0.0017734	  -20.5273	-0.00174633	  -20.5002	-0.00174594	  -20.5002	  -43.6486	
   -20.408	-0.00172367	  -20.4063	-0.00177897	  -20.4475	-0.00175155	  -20.4206	-0.0017514	  -20.4206	  -43.7849	
  -20.3271	-0.00172926	  -20.3262	-0.00178453	  -20.3661	-0.00175669	  -20.3398	-0.00175683	  -20.3398	  -43.9207	
  -20.2449	-0.00173488	   -20.245	-0.00179004	  -20.2836	-0.00176197	  -20.2578	-0.00176229	  -20.2578	  -44.0573	
  -20.1613	-0.00174045	  -20.1624	-0.00179548	  -20.2003	-0.0017675	  -20.1747	-0.00176781	  -20.1747	  -44.1952	
  -20.0772	-0.00174591	  -20.0793	-0.00180083	   -20.116	-0.00177323	  -20.0908	-0.00177333	  -20.0908	  -44.3332	
  -19.9924	-0.00175125	  -19.9949	-0.00180609	  -20.0306	-0.00177891	   -20.006	-0.00177875	   -20.006	  -44.4687	
  -19.9065	-0.00175646	    -19.91	-0.00181125	   -19.945	-0.00178431	  -19.9205	-0.00178401	  -19.9205	  -44.6002	
  -19.8204	-0.00176162	  -19.8243	-0.00181632	  -19.8591	-0.0017893	  -19.8346	-0.00178908	  -19.8346	   -44.727	
  -19.7335	-0.00176676	   -19.737	-0.00182135	  -19.7725	-0.00179396	  -19.7477	-0.00179402	  -19.7477	  -44.8506	
  -19.6458	-0.0017719	  -19.6487	-0.00182635	  -19.6857	-0.00179857	  -19.6601	-0.00179894	  -19.6601	  -44.9734	
  -19.5577	-0.00177702	  -19.5598	-0.00183132	  -19.5976	-0.00180336	  -19.5717	-0.0018039	  -19.5717	  -45.0974	
  -19.4685	-0.00178206	  -19.4696	-0.00183621	  -19.5089	-0.00180845	  -19.4823	-0.00180891	  -19.4823	  -45.2227	
  -19.3786	 -0.001787	  -19.3792	 -0.001841	  -19.4187	-0.00181374	  -19.3922	-0.00181391	  -19.3922	  -45.3478	
  -19.2882	-0.00179181	   -19.288	-0.00184568	  -19.3282	-0.00181896	  -19.3014	-0.00181882	  -19.3014	  -45.4704	
  -19.1968	-0.00179651	  -19.1957	-0.00185029	  -19.2369	-0.00182388	  -19.2098	-0.00182356	  -19.2098	  -45.5889	
  -19.1042	-0.00180114	  -19.1016	-0.00185483	  -19.1449	-0.00182839	  -19.1169	-0.00182812	  -19.1169	   -45.703	
  -19.0108	-0.00180577	  -19.0073	-0.00185932	  -19.0524	-0.00183261	  -19.0235	-0.00183256	  -19.0235	  -45.8141	
  -18.9174	-0.00181041	  -18.9121	-0.00186374	  -18.9586	-0.00183676	  -18.9294	-0.00183697	  -18.9294	  -45.9243	
   -18.823	-0.00181504	  -18.8161	-0.00186809	   -18.864	-0.00184108	  -18.8344	-0.0018414	  -18.8344	  -46.0351	
  -18.7279	-0.0018196	  -18.7198	-0.00187234	  -18.7686	-0.00184565	  -18.7388	-0.00184586	  -18.7388	  -46.1466	
   -18.632	-0.00182405	  -18.6234	-0.00187652	   -18.673	-0.00185037	  -18.6428	-0.00185032	  -18.6428	  -46.2579	
  -18.5352	-0.00182836	  -18.5263	-0.00188065	  -18.5763	-0.00185503	   -18.546	-0.00185468	   -18.546	  -46.3671	
  -18.4381	-0.00183257	  -18.4277	-0.00188479	  -18.4788	-0.00185942	  -18.4482	-0.00185892	  -18.4482	  -46.4731	
  -18.3402	-0.00183674	  -18.3272	-0.00188887	  -18.3811	-0.00186345	  -18.3495	-0.00186302	  -18.3495	  -46.5754	
  -18.2414	-0.0018409	  -18.2257	-0.00189292	  -18.2824	-0.00186721	  -18.2498	-0.00186701	  -18.2498	  -46.6752	
  -18.1421	-0.00184509	  -18.1227	-0.00189689	  -18.1826	-0.00187091	  -18.1491	-0.00187096	  -18.1491	  -46.7741	
  -18.0419	-0.00184925	  -18.0187	-0.00190072	  -18.0819	-0.00187475	  -18.0475	-0.0018749	  -18.0475	  -46.8726	
  -17.9414	-0.00185332	  -17.9144	-0.00190441	  -17.9807	-0.00187875	  -17.9455	-0.00187883	  -17.9455	  -46.9706	
  -17.8398	-0.00185723	  -17.8096	-0.00190799	  -17.8785	-0.00188287	  -17.8427	-0.0018827	  -17.8427	  -47.0674	
  -17.7381	-0.00186102	  -17.7037	-0.00191153	  -17.7764	-0.00188693	  -17.7394	-0.00188649	  -17.7394	  -47.1623	
  -17.6358	-0.00186467	  -17.5975	-0.0019151	  -17.6736	-0.00189083	  -17.6356	-0.0018902	  -17.6356	  -47.2549	
  -17.5325	-0.0018683	  -17.4907	-0.00191868	   -17.571	-0.00189447	  -17.5314	-0.00189382	  -17.5314	  -47.3454	
  -17.4285	-0.00187195	  -17.3845	-0.00192228	  -17.4672	-0.00189791	  -17.4267	-0.00189738	  -17.4267	  -47.4345	
  -17.3242	-0.00187564	  -17.2771	-0.00192579	  -17.3627	-0.00190131	  -17.3214	-0.00190091	  -17.3214	  -47.5228	
  -17.2191	-0.00187932	   -17.169	-0.00192917	  -17.2577	-0.00190472	  -17.2153	-0.00190441	  -17.2153	  -47.6101	
  -17.1133	-0.00188289	  -17.0597	-0.0019324	  -17.1524	-0.00190823	  -17.1085	-0.00190784	  -17.1085	   -47.696	
  -17.0065	-0.00188627	  -16.9503	-0.0019355	   -17.046	-0.00191176	  -17.0009	-0.00191118	  -17.0009	  -47.7795	
  -16.8992	-0.00188943	  -16.8399	-0.00193857	  -16.9386	-0.00191524	  -16.8926	-0.00191441	  -16.8926	  -47.8603	
  -16.7912	-0.00189246	  -16.7293	-0.00194165	  -16.8309	-0.00191859	  -16.7838	-0.00191756	  -16.7838	  -47.9391	
  -16.6825	-0.00189549	  -16.6179	-0.00194476	  -16.7229	-0.00192176	  -16.6744	-0.00192067	  -16.6744	  -48.0168	
  -16.5722	-0.00189862	  -16.5064	-0.00194787	  -16.6144	-0.00192481	  -16.5643	-0.00192377	  -16.5643	  -48.0942	
  -16.4613	-0.00190186	  -16.3941	-0.00195091	  -16.5046	-0.00192779	  -16.4533	-0.00192685	  -16.4533	  -48.1713	
  -16.3494	-0.00190512	  -16.2815	-0.00195382	   -16.394	-0.00193077	  -16.3417	-0.0019299	  -16.3417	  -48.2476	
  -16.2365	-0.00190828	  -16.1683	-0.00195658	  -16.2824	-0.00193378	   -16.229	-0.00193288	   -16.229	   -48.322	
  -16.1226	-0.00191123	  -16.0544	-0.00195921	  -16.1695	-0.00193681	  -16.1155	-0.00193575	  -16.1155	  -48.3938	
  -16.0082	-0.00191394	  -15.9401	-0.0019618	   -16.056	-0.00193978	  -16.0014	-0.00193851	  -16.0014	  -48.4627	
  -15.8932	-0.0019165	  -15.8247	-0.00196439	  -15.9415	-0.00194259	  -15.8865	-0.00194116	  -15.8865	   -48.529	
  -15.7772	-0.00191904	  -15.7094	 -0.001967	  -15.8256	-0.00194525	  -15.7708	-0.00194376	  -15.7708	   -48.594	
  -15.6605	-0.00192164	  -15.5933	-0.00196959	  -15.7092	-0.00194779	  -15.6544	-0.00194634	  -15.6544	  -48.6585	
  -15.5429	-0.00192434	  -15.4766	-0.00197211	  -15.5919	-0.00195028	  -15.5371	-0.00194891	  -15.5371	  -48.7227	
  -15.4249	-0.00192706	  -15.3596	-0.00197451	  -15.4744	-0.0019528	  -15.4196	-0.00195146	  -15.4196	  -48.7865	
  -15.3062	-0.00192971	  -15.2422	-0.00197676	   -15.356	-0.00195536	  -15.3015	-0.00195395	  -15.3015	  -48.8486	
  -15.1866	-0.00193219	  -15.1242	-0.0019789	  -15.2365	-0.00195791	  -15.1825	-0.00195633	  -15.1825	  -48.9083	
  -15.0671	-0.00193446	  -15.0053	-0.00198096	  -15.1155	-0.00196037	  -15.0626	-0.0019586	  -15.0626	  -48.9649	
  -14.9466	-0.00193659	  -14.8853	-0.00198301	  -14.9939	-0.00196269	  -14.9419	-0.00196076	  -14.9419	  -49.0191	
  -14.8263	-0.00193866	  -14.7645	-0.00198511	  -14.8721	-0.00196487	   -14.821	-0.00196288	   -14.821	   -49.072	
  -14.7058	-0.00194078	  -14.6434	-0.00198724	  -14.7496	-0.00196695	  -14.6996	-0.00196499	  -14.6996	  -49.1248	
  -14.5846	-0.00194296	  -14.5217	-0.00198937	  -14.6262	-0.00196901	  -14.5775	-0.00196711	  -14.5775	  -49.1778	
  -14.4627	-0.00194516	  -14.4002	-0.00199143	  -14.5021	-0.00197107	   -14.455	-0.00196922	   -14.455	  -49.2304	
  -14.3405	-0.00194728	  -14.2781	-0.00199331	  -14.3778	-0.00197314	  -14.3321	-0.00197124	  -14.3321	  -49.2811	
  -14.2179	-0.00194925	  -14.1551	-0.00199504	  -14.2524	-0.00197519	  -14.2084	-0.00197316	  -14.2084	   -49.329	
  -14.0949	-0.00195103	  -14.0321	-0.00199663	  -14.1261	-0.00197715	  -14.0843	-0.00197494	  -14.0843	  -49.3735	
  -13.9714	-0.00195269	  -13.9081	-0.00199819	  -13.9994	-0.00197898	  -13.9596	-0.00197662	  -13.9596	  -49.4155	
  -13.8471	-0.00195429	  -13.7838	-0.00199975	  -13.8725	-0.00198069	  -13.8345	-0.00197824	  -13.8345	  -49.4561	
  -13.7223	-0.00195596	  -13.6595	-0.00200128	  -13.7449	-0.00198231	  -13.7089	-0.00197985	  -13.7089	  -49.4962	
  -13.5974	-0.00195766	  -13.5348	-0.00200281	  -13.6167	-0.0019839	  -13.5829	-0.00198146	  -13.5829	  -49.5364	
  -13.4719	-0.00195934	  -13.4097	-0.00200427	   -13.488	-0.00198549	  -13.4565	-0.00198303	  -13.4565	  -49.5758	
  -13.3455	-0.00196087	  -13.2844	-0.0020057	  -13.3588	-0.00198707	  -13.3296	-0.00198455	  -13.3296	  -49.6137	
  -13.2179	-0.00196219	   -13.158	-0.00200706	  -13.2292	-0.00198861	  -13.2017	-0.00198595	  -13.2017	  -49.6489	
  -13.0899	-0.00196335	  -13.0318	-0.00200831	  -13.0986	-0.00199006	  -13.0734	-0.00198724	  -13.0734	   -49.681	
   -12.961	-0.00196443	  -12.9044	-0.0020095	   -12.968	-0.00199138	  -12.9445	-0.00198844	  -12.9445	  -49.7109	
  -12.8306	-0.00196556	  -12.7761	-0.00201057	  -12.8375	-0.00199259	  -12.8148	-0.00198958	  -12.8148	  -49.7394	
  -12.6999	-0.0019668	  -12.6474	-0.00201157	  -12.7069	-0.00199372	  -12.6847	-0.0019907	  -12.6847	  -49.7675	
  -12.5691	-0.00196809	  -12.5175	-0.00201251	  -12.5756	-0.00199482	  -12.5541	-0.00199181	  -12.5541	  -49.7952	
  -12.4375	-0.00196933	  -12.3873	-0.00201341	  -12.4438	-0.0019959	  -12.4229	-0.00199288	  -12.4229	   -49.822	
  -12.3059	-0.00197039	  -12.2569	-0.00201429	  -12.3118	-0.00199698	  -12.2915	-0.00199389	  -12.2915	  -49.8471	
  -12.1739	-0.00197122	  -12.1258	-0.00201513	  -12.1789	-0.00199803	  -12.1595	-0.0019948	  -12.1595	  -49.8699	
  -12.0415	-0.00197189	  -11.9942	-0.00201592	  -12.0457	-0.00199901	  -12.0271	-0.00199561	  -12.0271	  -49.8902	
  -11.9079	-0.0019725	  -11.8612	-0.00201663	  -11.9124	-0.00199988	  -11.8938	-0.00199634	  -11.8938	  -49.9084	
   -11.774	-0.00197316	  -11.7278	-0.00201723	  -11.7788	-0.00200062	  -11.7602	-0.00199701	  -11.7602	  -49.9252	
   -11.639	-0.00197392	  -11.5938	-0.00201777	  -11.6445	-0.00200123	  -11.6258	-0.00199764	  -11.6258	   -49.941	
  -11.5035	-0.00197479	  -11.4588	-0.00201823	  -11.5102	-0.00200174	  -11.4908	-0.00199825	  -11.4908	  -49.9563	
  -11.3673	-0.00197563	  -11.3239	-0.00201867	  -11.3764	-0.00200221	  -11.3559	-0.00199884	  -11.3559	  -49.9709	
  -11.2306	-0.00197631	   -11.189	-0.00201906	   -11.243	-0.00200269	  -11.2209	-0.00199935	  -11.2209	  -49.9838	
  -11.0943	-0.00197673	   -11.054	-0.00201941	  -11.1093	-0.00200322	  -11.0858	-0.00199979	  -11.0858	  -49.9946	
  -10.9581	-0.0019769	  -10.9185	-0.0020197	  -10.9749	-0.00200373	  -10.9505	-0.00200011	  -10.9505	  -50.0027	
  -10.8217	-0.00197692	  -10.7821	-0.00201991	  -10.8392	-0.00200421	  -10.8143	-0.00200035	  -10.8143	  -50.0087	
  -10.6853	-0.00197698	  -10.6451	-0.00202005	  -10.7021	-0.00200454	  -10.6775	-0.00200052	  -10.6775	   -50.013	
  -10.5486	-0.00197718	  -10.5076	-0.00202011	  -10.5637	-0.00200465	    -10.54	-0.00200065	    -10.54	  -50.0162	
  -10.4113	-0.00197756	  -10.3698	-0.00202011	  -10.4238	-0.00200457	  -10.4016	-0.00200075	  -10.4016	  -50.0187	
  -10.2741	-0.00197801	   -10.232	-0.00202007	  -10.2841	-0.00200436	  -10.2634	-0.00200081	  -10.2634	  -50.0203	
  -10.1363	-0.00197831	  -10.0939	-0.00201998	   -10.144	-0.00200417	  -10.1247	-0.00200082	  -10.1247	  -50.0205	
  -9.99813	-0.00197836	  -9.95571	-0.00201984	  -10.0048	-0.00200409	  -9.98622	-0.00200077	  -9.98622	  -50.0192	
  -9.85986	-0.00197811	  -9.81659	-0.00201964	  -9.86421	-0.00200414	  -9.84689	-0.00200063	  -9.84689	  -50.0157	
  -9.72128	-0.0019777	  -9.67679	-0.00201937	   -9.7245	-0.00200421	  -9.70752	-0.00200043	  -9.70752	  -50.0106	
  -9.58223	-0.00197728	  -9.53651	-0.00201902	  -9.58407	-0.00200414	   -9.5676	-0.00200015	   -9.5676	  -50.0037	
  -9.44223	-0.00197703	  -9.39597	-0.00201859	  -9.44418	-0.00200381	  -9.42746	-0.00199981	  -9.42746	  -49.9953	
  -9.30187	-0.00197695	  -9.25467	-0.00201808	  -9.30358	-0.00200321	  -9.28671	-0.00199941	  -9.28671	  -49.9853	
  -9.16101	-0.0019769	  -9.11318	-0.00201751	  -9.16217	-0.00200242	  -9.14545	-0.00199894	  -9.14545	  -49.9736	
  -9.01985	-0.00197673	   -8.9717	-0.00201687	  -9.02051	-0.00200159	  -9.00402	-0.0019984	  -9.00402	    -49.96	
  -8.87825	-0.00197631	  -8.83039	-0.00201618	  -8.87812	-0.00200089	  -8.86226	-0.00199779	  -8.86226	  -49.9448	
  -8.73642	-0.00197562	  -8.68873	-0.00201543	  -8.73523	-0.00200034	  -8.72013	-0.00199713	  -8.72013	  -49.9282	
  -8.59386	-0.00197477	  -8.54657	-0.00201462	  -8.59241	-0.0019999	  -8.57761	-0.00199643	  -8.57761	  -49.9107	
  -8.45149	-0.00197393	  -8.40447	-0.00201374	  -8.44914	-0.0019994	  -8.43503	-0.00199569	  -8.43503	  -49.8922	
  -8.30845	-0.00197323	  -8.26225	-0.00201279	  -8.30563	-0.00199869	  -8.29211	-0.0019949	  -8.29211	  -49.8725	
  -8.16497	-0.00197264	  -8.11976	-0.00201178	  -8.16106	-0.00199772	   -8.1486	-0.00199405	   -8.1486	  -49.8512	
  -8.02161	-0.00197207	  -7.97652	-0.0020107	  -8.01604	-0.00199653	  -8.00472	-0.0019931	  -8.00472	  -49.8275	
  -7.87751	-0.00197138	  -7.83378	-0.00200956	   -7.8708	-0.00199526	   -7.8607	-0.00199207	   -7.8607	  -49.8017	
  -7.73325	-0.00197045	  -7.69031	-0.00200836	  -7.72519	-0.00199404	  -7.71625	-0.00199095	  -7.71625	  -49.7738	
  -7.58937	-0.00196928	  -7.54636	-0.00200707	  -7.57943	-0.00199296	  -7.57172	-0.00198977	  -7.57172	  -49.7443	
  -7.44498	-0.00196796	  -7.40181	-0.00200573	  -7.43304	-0.00199196	  -7.42661	-0.00198855	  -7.42661	  -49.7138	
  -7.30032	-0.00196663	  -7.25688	-0.00200435	  -7.28693	-0.0019909	  -7.28138	-0.00198729	  -7.28138	  -49.6823	
  -7.15525	-0.00196538	  -7.11179	-0.00200292	  -7.14026	-0.00198966	  -7.13577	-0.00198599	  -7.13577	  -49.6498	
  -7.01033	-0.00196423	  -6.96606	-0.00200149	  -6.99326	-0.00198823	  -6.98988	-0.00198465	  -6.98988	  -49.6163	
  -6.86537	-0.0019631	  -6.81958	-0.00200002	  -6.84613	-0.0019866	   -6.8437	-0.00198324	   -6.8437	  -49.5811	
  -6.71956	-0.00196187	   -6.6726	-0.00199849	  -6.69944	-0.00198489	   -6.6972	-0.00198175	   -6.6972	  -49.5438	
  -6.57383	-0.00196045	  -6.52537	-0.00199685	   -6.5523	-0.00198317	   -6.5505	-0.00198016	   -6.5505	   -49.504	
  -6.42801	-0.00195882	  -6.37774	-0.00199506	  -6.40461	-0.00198151	  -6.40345	-0.00197846	  -6.40345	  -49.4616	
  -6.28128	-0.00195701	   -6.2303	-0.00199315	  -6.25694	-0.00197987	  -6.25617	-0.00197668	  -6.25617	  -49.4169	
  -6.13424	-0.00195516	  -6.08218	-0.00199115	  -6.10915	-0.00197812	  -6.10853	-0.00197481	  -6.10853	  -49.3703	
  -5.98678	-0.00195335	  -5.93501	-0.00198913	  -5.96179	-0.00197621	  -5.96119	-0.0019729	  -5.96119	  -49.3224	
  -5.83877	-0.0019516	  -5.78787	-0.00198713	  -5.81363	-0.00197411	  -5.81342	-0.00197095	  -5.81342	  -49.2737	
  -5.69046	-0.00194984	  -5.64027	-0.00198512	  -5.66597	-0.0019719	  -5.66557	-0.00196895	  -5.66557	  -49.2238	
  -5.54206	-0.00194797	  -5.49312	-0.00198305	  -5.51963	-0.00196964	  -5.51827	-0.00196689	  -5.51827	  -49.1722	
  -5.39277	-0.00194593	   -5.3459	-0.00198086	    -5.373	-0.00196741	  -5.37056	-0.00196473	  -5.37056	  -49.1183	
   -5.2442	-0.00194369	  -5.19846	-0.00197851	  -5.22594	-0.00196524	  -5.22287	-0.00196248	  -5.22287	   -49.062	
  -5.09515	-0.00194134	  -5.05033	-0.00197601	  -5.07731	-0.00196309	  -5.07426	-0.00196015	  -5.07426	  -49.0036	
  -4.94584	-0.00193896	  -4.90243	-0.00197344	  -4.92847	-0.00196086	  -4.92558	-0.00195775	  -4.92558	  -48.9438	
  -4.79684	-0.0019366	  -4.75428	-0.00197087	  -4.77827	-0.00195846	  -4.77646	-0.00195531	  -4.77646	  -48.8828	
  -4.64763	-0.00193428	  -4.60539	-0.00196834	  -4.62668	-0.00195586	  -4.62657	-0.00195283	  -4.62657	  -48.8207	
  -4.49844	-0.00193193	  -4.45603	-0.00196581	  -4.47573	-0.00195311	  -4.47673	-0.00195028	  -4.47673	  -48.7571	
  -4.34877	-0.00192946	  -4.30608	-0.00196321	   -4.3242	-0.00195031	  -4.32635	-0.00194766	  -4.32635	  -48.6915	
   -4.1992	-0.00192682	  -4.15616	-0.00196071	  -4.17373	-0.00194769	  -4.17636	-0.00194507	  -4.17636	  -48.6268	
   -4.0496	-0.00192417	  -4.00576	-0.00195798	  -4.02202	-0.00194489	  -4.02579	-0.00194235	  -4.02579	  -48.5587	
  -3.89947	-0.00192153	  -3.85514	-0.00195505	  -3.87145	-0.00194193	  -3.87535	-0.0019395	  -3.87535	  -48.4875	
  -3.74941	-0.00191885	  -3.70451	-0.00195193	  -3.71939	-0.0019389	  -3.72444	-0.00193656	  -3.72444	   -48.414	
  -3.59892	-0.00191608	  -3.55477	-0.00194871	  -3.56822	-0.00193586	  -3.57397	-0.00193355	  -3.57397	  -48.3388	
  -3.44826	-0.00191316	  -3.40433	-0.00194549	  -3.41604	-0.00193287	  -3.42288	-0.0019305	  -3.42288	  -48.2626	
